CHILLAN EMBRACE-14 <312> 1 Min. Reported data

 DD MM YYYY  HH MM   D(Deg)  H(nT)   Z(nT)   I(Deg)   F(nT)

 08 11 2023  00 00  03.9825 19178.3 -14989.0 -38.0097 24340.8
 08 11 2023  00 01  03.9824 19177.7 -14989.1 -38.0107 24340.4
 08 11 2023  00 02  03.9823 19177.1 -14989.2 -38.0118 24340.0
 08 11 2023  00 03  03.9825 19176.5 -14989.2 -38.0128 24339.5
 08 11 2023  00 04  03.9828 19176.0 -14989.3 -38.0136 24339.2
 08 11 2023  00 05  03.9833 19176.2 -14989.4 -38.0135 24339.4
 08 11 2023  00 06  03.9842 19176.9 -14989.4 -38.0125 24340.0
 08 11 2023  00 07  03.9850 19177.4 -14989.4 -38.0118 24340.4
 08 11 2023  00 08  03.9856 19178.0 -14989.4 -38.0109 24340.8
 08 11 2023  00 09  03.9865 19178.8 -14989.4 -38.0096 24341.5
 08 11 2023  00 10  03.9870 19179.7 -14989.3 -38.0081 24342.1
 08 11 2023  00 11  03.9874 19180.5 -14989.2 -38.0068 24342.7
 08 11 2023  00 12  03.9875 19181.0 -14989.1 -38.0061 24343.0
 08 11 2023  00 13  03.9874 19181.0 -14989.1 -38.0059 24343.1
 08 11 2023  00 14  03.9876 19181.0 -14989.1 -38.0060 24343.0
 08 11 2023  00 15  03.9881 19181.2 -14989.2 -38.0058 24343.2
 08 11 2023  00 16  03.9885 19181.3 -14989.2 -38.0057 24343.4
 08 11 2023  00 17  03.9890 19181.4 -14989.2 -38.0056 24343.4
 08 11 2023  00 18  03.9890 19181.5 -14989.2 -38.0055 24343.5
 08 11 2023  00 19  03.9891 19181.4 -14989.2 -38.0056 24343.5
 08 11 2023  00 20  03.9890 19181.4 -14989.3 -38.0057 24343.4
 08 11 2023  00 21  03.9885 19181.3 -14989.3 -38.0058 24343.4
 08 11 2023  00 22  03.9879 19181.0 -14989.3 -38.0063 24343.2
 08 11 2023  00 23  03.9873 19180.6 -14989.4 -38.0071 24342.9
 08 11 2023  00 24  03.9871 19180.4 -14989.5 -38.0075 24342.8
 08 11 2023  00 25  03.9874 19180.3 -14989.5 -38.0077 24342.7
 08 11 2023  00 26  03.9866 19180.3 -14989.5 -38.0078 24342.8
 08 11 2023  00 27  03.9865 19180.4 -14989.6 -38.0077 24342.8
 08 11 2023  00 28  03.9856 19179.7 -14989.5 -38.0087 24342.3
 08 11 2023  00 29  03.9864 19180.0 -14989.6 -38.0084 24342.6
 08 11 2023  00 30  03.9857 19181.2 -14989.6 -38.0066 24343.5
 08 11 2023  00 31  03.9853 19181.7 -14989.6 -38.0058 24343.8
 08 11 2023  00 32  03.9848 19182.0 -14989.6 -38.0054 24344.1
 08 11 2023  00 33  03.9845 19181.9 -14989.6 -38.0056 24344.1
 08 11 2023  00 34  03.9850 19181.6 -14989.7 -38.0063 24343.9
 08 11 2023  00 35  03.9863 19181.5 -14989.9 -38.0067 24343.9
 08 11 2023  00 36  03.9875 19181.5 -14990.0 -38.0068 24344.0
 08 11 2023  00 37  03.9881 19181.4 -14990.0 -38.0071 24343.9
 08 11 2023  00 38  03.9884 19181.3 -14990.0 -38.0073 24343.8
 08 11 2023  00 39  03.9882 19181.0 -14990.1 -38.0078 24343.6
 08 11 2023  00 40  03.9876 19180.6 -14990.1 -38.0083 24343.4
 08 11 2023  00 41  03.9867 19180.2 -14990.2 -38.0091 24343.1
 08 11 2023  00 42  03.9879 19180.3 -14990.2 -38.0091 24343.2
 08 11 2023  00 43  03.9846 19180.1 -14990.2 -38.0092 24343.0
 08 11 2023  00 44  03.9846 19180.2 -14990.2 -38.0092 24343.1
 08 11 2023  00 45  03.9842 19181.7 -14990.3 -38.0071 24344.3
 08 11 2023  00 46  03.9827 19181.2 -14990.3 -38.0078 24344.0
 08 11 2023  00 47  03.9823 19179.9 -14990.4 -38.0099 24343.0
 08 11 2023  00 48  03.9833 19179.9 -14990.5 -38.0103 24343.1
 08 11 2023  00 49  03.9827 19180.1 -14990.6 -38.0100 24343.2
 08 11 2023  00 50  03.9827 19179.5 -14990.7 -38.0111 24342.8
 08 11 2023  00 51  03.9833 19179.6 -14990.8 -38.0111 24342.9
 08 11 2023  00 52  03.9837 19180.6 -14990.8 -38.0096 24343.8
 08 11 2023  00 53  03.9833 19181.1 -14990.8 -38.0088 24344.2
 08 11 2023  00 54  03.9827 19181.3 -14990.8 -38.0087 24344.3
 08 11 2023  00 55  03.9820 19180.9 -14990.8 -38.0093 24344.0
 08 11 2023  00 56  03.9811 19180.6 -14990.9 -38.0098 24343.9
 08 11 2023  00 57  03.9810 19180.5 -14991.0 -38.0102 24343.9
 08 11 2023  00 58  03.9813 19180.8 -14991.1 -38.0099 24344.1
 08 11 2023  00 59  03.9821 19181.2 -14991.1 -38.0094 24344.5
 08 11 2023  01 00  03.9832 19182.1 -14991.2 -38.0082 24345.2
 08 11 2023  01 01  03.9840 19182.7 -14991.1 -38.0072 24345.6
 08 11 2023  01 02  03.9844 19182.8 -14991.1 -38.0070 24345.7
 08 11 2023  01 03  03.9839 19182.3 -14991.0 -38.0077 24345.2
 08 11 2023  01 04  03.9839 19181.6 -14991.1 -38.0088 24344.7
 08 11 2023  01 05  03.9844 19181.0 -14991.2 -38.0098 24344.3
 08 11 2023  01 06  03.9849 19180.6 -14991.2 -38.0105 24344.0
 08 11 2023  01 07  03.9846 19180.4 -14991.3 -38.0108 24343.9
 08 11 2023  01 08  03.9844 19180.3 -14991.3 -38.0111 24343.8
 08 11 2023  01 09  03.9848 19180.6 -14991.3 -38.0108 24344.1
 08 11 2023  01 10  03.9854 19181.4 -14991.4 -38.0095 24344.8
 08 11 2023  01 11  03.9851 19182.2 -14991.3 -38.0084 24345.4
 08 11 2023  01 12  03.9842 19182.0 -14991.3 -38.0086 24345.2
 08 11 2023  01 13  03.9837 19181.5 -14991.4 -38.0095 24344.8
 08 11 2023  01 14  03.9831 19181.2 -14991.5 -38.0100 24344.7
 08 11 2023  01 15  03.9819 19181.2 -14991.6 -38.0103 24344.7
 08 11 2023  01 16  03.9809 19180.9 -14991.7 -38.0109 24344.5
 08 11 2023  01 17  03.9802 19180.7 -14991.8 -38.0114 24344.5
 08 11 2023  01 18  03.9794 19180.7 -14991.9 -38.0115 24344.5
 08 11 2023  01 19  03.9789 19180.8 -14991.9 -38.0115 24344.7
 08 11 2023  01 20  03.9786 19180.9 -14992.0 -38.0114 24344.7
 08 11 2023  01 21  03.9783 19181.1 -14992.0 -38.0112 24344.9
 08 11 2023  01 22  03.9774 19181.3 -14992.0 -38.0110 24345.1
 08 11 2023  01 23  03.9768 19180.9 -14992.1 -38.0115 24344.8
 08 11 2023  01 24  03.9765 19180.2 -14992.1 -38.0127 24344.3
 08 11 2023  01 25  03.9771 19180.1 -14992.2 -38.0130 24344.2
 08 11 2023  01 26  03.9770 19180.2 -14992.2 -38.0130 24344.3
 08 11 2023  01 27  03.9762 19179.8 -14992.2 -38.0135 24344.0
 08 11 2023  01 28  03.9757 19178.9 -14992.3 -38.0148 24343.4
 08 11 2023  01 29  03.9756 19178.2 -14992.4 -38.0160 24342.9
 08 11 2023  01 30  03.9760 19178.4 -14992.4 -38.0158 24343.1
 08 11 2023  01 31  03.9757 19178.6 -14992.4 -38.0155 24343.2
 08 11 2023  01 32  03.9753 19178.6 -14992.5 -38.0157 24343.2
 08 11 2023  01 33  03.9752 19178.4 -14992.5 -38.0160 24343.1
 08 11 2023  01 34  03.9760 19178.5 -14992.5 -38.0159 24343.2
 08 11 2023  01 35  03.9765 19179.2 -14992.5 -38.0148 24343.7
 08 11 2023  01 36  03.9761 19180.2 -14992.4 -38.0132 24344.5
 08 11 2023  01 37  03.9764 19180.5 -14992.4 -38.0129 24344.7
 08 11 2023  01 38  03.9777 19180.6 -14992.4 -38.0127 24344.8
 08 11 2023  01 39  03.9775 19181.3 -14992.4 -38.0116 24345.3
 08 11 2023  01 40  03.9749 19181.6 -14992.4 -38.0110 24345.6
 08 11 2023  01 41  03.9733 19181.1 -14992.4 -38.0119 24345.2
 08 11 2023  01 42  03.9732 19180.5 -14992.5 -38.0130 24344.7
 08 11 2023  01 43  03.9737 19180.8 -14992.6 -38.0128 24345.0
 08 11 2023  01 44  03.9732 19181.3 -14992.6 -38.0121 24345.4
 08 11 2023  01 45  03.9728 19181.5 -14992.7 -38.0119 24345.6
 08 11 2023  01 46  03.9732 19181.8 -14992.7 -38.0115 24345.9
 08 11 2023  01 47  03.9734 19181.8 -14992.7 -38.0116 24345.9
 08 11 2023  01 48  03.9734 19182.5 -14992.8 -38.0106 24346.5
 08 11 2023  01 49  03.9712 19182.4 -14992.8 -38.0109 24346.4
 08 11 2023  01 50  03.9680 19180.7 -14992.9 -38.0135 24345.2
 08 11 2023  01 51  03.9670 19178.9 -14993.1 -38.0166 24343.8
 08 11 2023  01 52  03.9675 19177.7 -14993.3 -38.0185 24343.1
 08 11 2023  01 53  03.9677 19177.5 -14993.4 -38.0190 24343.0
 08 11 2023  01 54  03.9669 19178.1 -14993.5 -38.0183 24343.4
 08 11 2023  01 55  03.9651 19177.7 -14993.6 -38.0191 24343.2
 08 11 2023  01 56  03.9649 19177.3 -14993.7 -38.0198 24342.9
 08 11 2023  01 57  03.9648 19176.5 -14993.8 -38.0212 24342.4
 08 11 2023  01 58  03.9644 19176.6 -14993.9 -38.0213 24342.5
 08 11 2023  01 59  03.9632 19176.1 -14994.0 -38.0221 24342.2
 08 11 2023  02 00  03.9622 19175.3 -14994.1 -38.0234 24341.6
 08 11 2023  02 01  03.9636 19174.9 -14994.2 -38.0243 24341.4
 08 11 2023  02 02  03.9648 19174.8 -14994.2 -38.0245 24341.3
 08 11 2023  02 03  03.9650 19175.4 -14994.2 -38.0236 24341.8
 08 11 2023  02 04  03.9636 19175.0 -14994.3 -38.0243 24341.5
 08 11 2023  02 05  03.9638 19176.3 -14994.4 -38.0226 24342.6
 08 11 2023  02 06  03.9633 19176.6 -14994.4 -38.0222 24342.8
 08 11 2023  02 07  03.9630 19176.6 -14994.4 -38.0222 24342.9
 08 11 2023  02 08  03.9620 19177.0 -14994.4 -38.0217 24343.1
 08 11 2023  02 09  03.9607 19177.0 -14994.5 -38.0217 24343.2
 08 11 2023  02 10  03.9597 19178.0 -14994.6 -38.0204 24344.0
 08 11 2023  02 11  03.9599 19178.2 -14994.6 -38.0203 24344.2
 08 11 2023  02 12  03.9601 19177.7 -14994.6 -38.0211 24343.8
 08 11 2023  02 13  03.9600 19177.7 -14994.7 -38.0212 24343.9
 08 11 2023  02 14  03.9603 19178.9 -14994.7 -38.0194 24344.9
 08 11 2023  02 15  03.9582 19178.8 -14994.7 -38.0196 24344.7
 08 11 2023  02 16  03.9591 19179.0 -14994.8 -38.0195 24345.0
 08 11 2023  02 17  03.9602 19179.7 -14994.9 -38.0186 24345.6
 08 11 2023  02 18  03.9602 19179.9 -14994.9 -38.0182 24345.8
 08 11 2023  02 19  03.9597 19180.1 -14994.9 -38.0180 24345.9
 08 11 2023  02 20  03.9597 19180.0 -14994.9 -38.0182 24345.8
 08 11 2023  02 21  03.9598 19180.0 -14995.0 -38.0183 24345.8
 08 11 2023  02 22  03.9596 19179.9 -14995.0 -38.0184 24345.8
 08 11 2023  02 23  03.9598 19179.5 -14995.0 -38.0190 24345.5
 08 11 2023  02 24  03.9602 19179.3 -14995.0 -38.0194 24345.4
 08 11 2023  02 25  03.9602 19179.7 -14995.0 -38.0189 24345.7
 08 11 2023  02 26  03.9601 19179.8 -14995.0 -38.0186 24345.8
 08 11 2023  02 27  03.9600 19179.8 -14995.0 -38.0186 24345.8
 08 11 2023  02 28  03.9601 19179.4 -14995.0 -38.0193 24345.4
 08 11 2023  02 29  03.9604 19178.8 -14995.0 -38.0201 24345.0
 08 11 2023  02 30  03.9605 19178.7 -14995.1 -38.0204 24344.9
 08 11 2023  02 31  03.9607 19178.4 -14995.1 -38.0207 24344.7
 08 11 2023  02 32  03.9611 19177.8 -14995.1 -38.0217 24344.2
 08 11 2023  02 33  03.9612 19176.5 -14995.1 -38.0235 24343.2
 08 11 2023  02 34  03.9612 19176.3 -14995.1 -38.0239 24343.0
 08 11 2023  02 35  03.9614 19176.5 -14995.1 -38.0236 24343.2
 08 11 2023  02 36  03.9618 19176.8 -14995.1 -38.0231 24343.4
 08 11 2023  02 37  03.9621 19176.9 -14995.0 -38.0228 24343.5
 08 11 2023  02 38  03.9623 19177.0 -14995.0 -38.0226 24343.6
 08 11 2023  02 39  03.9627 19177.6 -14995.0 -38.0218 24344.0
 08 11 2023  02 40  03.9626 19177.7 -14995.0 -38.0216 24344.1
 08 11 2023  02 41  03.9627 19177.2 -14995.0 -38.0224 24343.6
 08 11 2023  02 42  03.9627 19177.5 -14995.0 -38.0219 24343.9
 08 11 2023  02 43  03.9629 19177.3 -14995.0 -38.0222 24343.8
 08 11 2023  02 44  03.9636 19177.6 -14995.0 -38.0218 24344.0
 08 11 2023  02 45  03.9640 19177.9 -14995.0 -38.0213 24344.3
 08 11 2023  02 46  03.9641 19178.1 -14995.0 -38.0211 24344.4
 08 11 2023  02 47  03.9645 19178.0 -14995.0 -38.0212 24344.3
 08 11 2023  02 48  03.9650 19177.8 -14995.0 -38.0214 24344.2
 08 11 2023  02 49  03.9655 19177.6 -14995.0 -38.0218 24343.9
 08 11 2023  02 50  03.9656 19177.3 -14995.0 -38.0222 24343.8
 08 11 2023  02 51  03.9655 19177.2 -14995.0 -38.0224 24343.7
 08 11 2023  02 52  03.9660 19176.8 -14995.0 -38.0230 24343.4
 08 11 2023  02 53  03.9657 19175.8 -14995.0 -38.0245 24342.6
 08 11 2023  02 54  03.9651 19174.7 -14995.1 -38.0263 24341.8
 08 11 2023  02 55  03.9652 19174.8 -14995.2 -38.0262 24341.9
 08 11 2023  02 56  03.9654 19174.9 -14995.2 -38.0263 24342.0
 08 11 2023  02 57  03.9659 19175.6 -14995.3 -38.0252 24342.6
 08 11 2023  02 58  03.9660 19176.5 -14995.2 -38.0239 24343.3
 08 11 2023  02 59  03.9653 19176.7 -14995.2 -38.0236 24343.4
 08 11 2023  03 00  03.9650 19176.8 -14995.2 -38.0234 24343.5
 08 11 2023  03 01  03.9648 19176.4 -14995.3 -38.0241 24343.2
 08 11 2023  03 02  03.9652 19175.7 -14995.3 -38.0252 24342.7
 08 11 2023  03 03  03.9653 19174.8 -14995.4 -38.0266 24342.0
 08 11 2023  03 04  03.9656 19174.5 -14995.5 -38.0272 24341.8
 08 11 2023  03 05  03.9659 19174.7 -14995.5 -38.0270 24342.0
 08 11 2023  03 06  03.9658 19175.1 -14995.5 -38.0265 24342.3
 08 11 2023  03 07  03.9655 19175.4 -14995.6 -38.0261 24342.6
 08 11 2023  03 08  03.9651 19175.2 -14995.6 -38.0263 24342.5
 08 11 2023  03 09  03.9647 19174.7 -14995.6 -38.0271 24342.1
 08 11 2023  03 10  03.9647 19174.1 -14995.7 -38.0282 24341.6
 08 11 2023  03 11  03.9651 19172.7 -14995.7 -38.0303 24340.6
 08 11 2023  03 12  03.9664 19172.5 -14995.8 -38.0308 24340.5
 08 11 2023  03 13  03.9670 19172.9 -14995.8 -38.0302 24340.8
 08 11 2023  03 14  03.9666 19173.7 -14995.8 -38.0290 24341.4
 08 11 2023  03 15  03.9655 19174.1 -14995.8 -38.0283 24341.7
 08 11 2023  03 16  03.9647 19174.2 -14995.8 -38.0282 24341.8
 08 11 2023  03 17  03.9652 19173.7 -14995.8 -38.0291 24341.4
 08 11 2023  03 18  03.9655 19173.0 -14995.8 -38.0301 24340.9
 08 11 2023  03 19  03.9654 19172.7 -14995.9 -38.0306 24340.7
 08 11 2023  03 20  03.9654 19173.0 -14995.9 -38.0302 24340.9
 08 11 2023  03 21  03.9652 19173.7 -14995.9 -38.0292 24341.5
 08 11 2023  03 22  03.9650 19174.1 -14995.9 -38.0286 24341.8
 08 11 2023  03 23  03.9639 19174.3 -14995.9 -38.0283 24342.0
 08 11 2023  03 24  03.9630 19174.6 -14996.0 -38.0280 24342.2
 08 11 2023  03 25  03.9628 19175.0 -14996.0 -38.0275 24342.6
 08 11 2023  03 26  03.9630 19175.2 -14996.1 -38.0273 24342.8
 08 11 2023  03 27  03.9632 19175.6 -14996.1 -38.0267 24343.1
 08 11 2023  03 28  03.9633 19176.1 -14996.1 -38.0260 24343.5
 08 11 2023  03 29  03.9632 19176.5 -14996.1 -38.0254 24343.8
 08 11 2023  03 30  03.9634 19176.7 -14996.1 -38.0251 24343.9
 08 11 2023  03 31  03.9633 19176.8 -14996.1 -38.0249 24344.1
 08 11 2023  03 32  03.9634 19176.8 -14996.1 -38.0250 24344.0
 08 11 2023  03 33  03.9639 19177.0 -14996.1 -38.0247 24344.2
 08 11 2023  03 34  03.9651 19177.7 -14996.0 -38.0237 24344.7
 08 11 2023  03 35  03.9665 19178.5 -14996.0 -38.0223 24345.3
 08 11 2023  03 36  03.9684 19180.4 -14995.9 -38.0193 24346.8
 08 11 2023  03 37  03.9694 19181.9 -14995.8 -38.0170 24347.9
 08 11 2023  03 38  03.9694 19182.6 -14995.7 -38.0158 24348.4
 08 11 2023  03 39  03.9682 19182.2 -14995.7 -38.0164 24348.0
 08 11 2023  03 40  03.9665 19181.3 -14995.7 -38.0178 24347.4
 08 11 2023  03 41  03.9641 19181.1 -14995.8 -38.0183 24347.2
 08 11 2023  03 42  03.9606 19181.2 -14996.0 -38.0183 24347.5
 08 11 2023  03 43  03.9585 19181.5 -14996.0 -38.0181 24347.7
 08 11 2023  03 44  03.9551 19181.1 -14996.2 -38.0189 24347.5
 08 11 2023  03 45  03.9532 19180.3 -14996.4 -38.0205 24347.0
 08 11 2023  03 46  03.9520 19180.0 -14996.6 -38.0212 24346.9
 08 11 2023  03 47  03.9512 19179.9 -14996.7 -38.0216 24346.9
 08 11 2023  03 48  03.9506 19180.0 -14996.8 -38.0218 24347.0
 08 11 2023  03 49  03.9497 19180.5 -14997.0 -38.0214 24347.5
 08 11 2023  03 50  03.9471 19180.6 -14997.2 -38.0215 24347.7
 08 11 2023  03 51  03.9444 19180.4 -14997.4 -38.0221 24347.7
 08 11 2023  03 52  03.9416 19180.7 -14997.5 -38.0221 24348.0
 08 11 2023  03 53  03.9395 19179.9 -14997.7 -38.0236 24347.5
 08 11 2023  03 54  03.9367 19180.0 -14998.0 -38.0238 24347.7
 08 11 2023  03 55  03.9342 19179.9 -14998.2 -38.0244 24347.8
 08 11 2023  03 56  03.9329 19180.2 -14998.4 -38.0243 24348.1
 08 11 2023  03 57  03.9320 19180.2 -14998.5 -38.0246 24348.2
 08 11 2023  03 58  03.9308 19179.5 -14998.6 -38.0258 24347.7
 08 11 2023  03 59  03.9299 19179.8 -14998.7 -38.0256 24348.0
 08 11 2023  04 00  03.9294 19180.5 -14998.8 -38.0248 24348.6
 08 11 2023  04 01  03.9287 19181.1 -14998.9 -38.0240 24349.2
 08 11 2023  04 02  03.9272 19181.6 -14999.0 -38.0234 24349.6
 08 11 2023  04 03  03.9257 19181.5 -14999.0 -38.0236 24349.6
 08 11 2023  04 04  03.9236 19180.9 -14999.1 -38.0248 24349.1
 08 11 2023  04 05  03.9225 19180.6 -14999.2 -38.0253 24349.0
 08 11 2023  04 06  03.9218 19179.7 -14999.3 -38.0268 24348.3
 08 11 2023  04 07  03.9221 19178.6 -14999.4 -38.0286 24347.5
 08 11 2023  04 08  03.9218 19178.0 -14999.5 -38.0295 24347.1
 08 11 2023  04 09  03.9200 19177.5 -14999.5 -38.0303 24346.7
 08 11 2023  04 10  03.9188 19177.8 -14999.7 -38.0303 24347.0
 08 11 2023  04 11  03.9180 19179.5 -14999.8 -38.0280 24348.4
 08 11 2023  04 12  03.9175 19180.4 -14999.8 -38.0266 24349.1
 08 11 2023  04 13  03.9164 19180.6 -14999.8 -38.0264 24349.3
 08 11 2023  04 14  03.9155 19181.1 -14999.8 -38.0257 24349.7
 08 11 2023  04 15  03.9143 19181.0 -14999.8 -38.0259 24349.7
 08 11 2023  04 16  03.9139 19181.3 -14999.9 -38.0255 24350.0
 08 11 2023  04 17  03.9141 19181.7 -14999.9 -38.0249 24350.2
 08 11 2023  04 18  03.9135 19181.6 -14999.9 -38.0250 24350.1
 08 11 2023  04 19  03.9117 19181.1 -14999.9 -38.0259 24349.8
 08 11 2023  04 20  03.9106 19181.2 -15000.0 -38.0258 24349.9
 08 11 2023  04 21  03.9102 19181.2 -15000.0 -38.0260 24349.9
 08 11 2023  04 22  03.9103 19181.3 -15000.0 -38.0258 24350.0
 08 11 2023  04 23  03.9106 19181.8 -15000.0 -38.0250 24350.4
 08 11 2023  04 24  03.9104 19181.7 -14999.9 -38.0250 24350.3
 08 11 2023  04 25  03.9101 19181.6 -14999.9 -38.0251 24350.2
 08 11 2023  04 26  03.9102 19181.5 -14999.9 -38.0252 24350.1
 08 11 2023  04 27  03.9109 19181.7 -14999.8 -38.0248 24350.2
 08 11 2023  04 28  03.9107 19181.4 -14999.7 -38.0251 24349.9
 08 11 2023  04 29  03.9113 19181.5 -14999.6 -38.0248 24349.9
 08 11 2023  04 30  03.9112 19181.3 -14999.6 -38.0249 24349.8
 08 11 2023  04 31  03.9114 19181.7 -14999.5 -38.0243 24350.0
 08 11 2023  04 32  03.9120 19182.4 -14999.4 -38.0231 24350.5
 08 11 2023  04 33  03.9123 19182.0 -14999.3 -38.0234 24350.1
 08 11 2023  04 34  03.9127 19181.6 -14999.2 -38.0238 24349.8
 08 11 2023  04 35  03.9127 19181.0 -14999.1 -38.0246 24349.2
 08 11 2023  04 36  03.9131 19181.1 -14999.1 -38.0243 24349.3
 08 11 2023  04 37  03.9138 19181.5 -14999.0 -38.0236 24349.5
 08 11 2023  04 38  03.9143 19181.5 -14998.9 -38.0234 24349.4
 08 11 2023  04 39  03.9145 19181.1 -14998.8 -38.0238 24349.1
 08 11 2023  04 40  03.9145 19180.4 -14998.7 -38.0247 24348.5
 08 11 2023  04 41  03.9153 19180.1 -14998.7 -38.0250 24348.2
 08 11 2023  04 42  03.9158 19179.4 -14998.6 -38.0258 24347.6
 08 11 2023  04 43  03.9160 19178.4 -14998.5 -38.0271 24346.8
 08 11 2023  04 44  03.9162 19177.7 -14998.5 -38.0280 24346.2
 08 11 2023  04 45  03.9167 19177.5 -14998.4 -38.0283 24346.0
 08 11 2023  04 46  03.9174 19177.2 -14998.3 -38.0286 24345.7
 08 11 2023  04 47  03.9179 19176.8 -14998.2 -38.0289 24345.4
 08 11 2023  04 48  03.9183 19176.2 -14998.1 -38.0297 24344.8
 08 11 2023  04 49  03.9188 19175.5 -14998.1 -38.0306 24344.2
 08 11 2023  04 50  03.9192 19175.0 -14998.0 -38.0312 24343.9
 08 11 2023  04 51  03.9196 19175.1 -14998.0 -38.0310 24343.8
 08 11 2023  04 52  03.9196 19175.2 -14997.9 -38.0307 24343.9
 08 11 2023  04 53  03.9196 19175.1 -14997.9 -38.0308 24343.8
 08 11 2023  04 54  03.9198 19175.0 -14997.8 -38.0309 24343.7
 08 11 2023  04 55  03.9199 19174.5 -14997.8 -38.0314 24343.3
 08 11 2023  04 56  03.9200 19174.4 -14997.7 -38.0315 24343.2
 08 11 2023  04 57  03.9202 19174.5 -14997.7 -38.0314 24343.2
 08 11 2023  04 58  03.9208 19174.6 -14997.6 -38.0310 24343.3
 08 11 2023  04 59  03.9214 19175.5 -14997.6 -38.0297 24343.9
 08 11 2023  05 00  03.9216 19175.5 -14997.5 -38.0295 24343.8
 08 11 2023  05 01  03.9216 19175.0 -14997.4 -38.0301 24343.4
 08 11 2023  05 02  03.9214 19174.6 -14997.4 -38.0307 24343.1
 08 11 2023  05 03  03.9216 19173.8 -14997.3 -38.0317 24342.4
 08 11 2023  05 04  03.9221 19173.5 -14997.3 -38.0320 24342.2
 08 11 2023  05 05  03.9231 19173.3 -14997.2 -38.0321 24342.0
 08 11 2023  05 06  03.9244 19172.8 -14997.1 -38.0327 24341.6
 08 11 2023  05 07  03.9254 19173.0 -14997.0 -38.0322 24341.7
 08 11 2023  05 08  03.9262 19173.7 -14996.9 -38.0310 24342.1
 08 11 2023  05 09  03.9265 19174.1 -14996.8 -38.0302 24342.4
 08 11 2023  05 10  03.9269 19173.9 -14996.7 -38.0304 24342.1
 08 11 2023  05 11  03.9270 19173.1 -14996.6 -38.0314 24341.4
 08 11 2023  05 12  03.9271 19172.7 -14996.6 -38.0318 24341.1
 08 11 2023  05 13  03.9275 19172.4 -14996.5 -38.0321 24340.8
 08 11 2023  05 14  03.9276 19172.1 -14996.5 -38.0325 24340.6
 08 11 2023  05 15  03.9276 19172.2 -14996.4 -38.0324 24340.6
 08 11 2023  05 16  03.9272 19172.2 -14996.4 -38.0323 24340.6
 08 11 2023  05 17  03.9268 19172.2 -14996.4 -38.0322 24340.6
 08 11 2023  05 18  03.9267 19172.4 -14996.4 -38.0319 24340.8
 08 11 2023  05 19  03.9266 19172.9 -14996.4 -38.0312 24341.1
