CHILLAN EMBRACE-14 <310> 1 Min. Reported data

 DD MM YYYY  HH MM   D(Deg)  H(nT)   Z(nT)   I(Deg)   F(nT)

 05 11 2024  00 00  03.8525 19112.4 -14984.9 -38.0977 24286.4
 05 11 2024  00 01  03.8527 19112.3 -14984.8 -38.0977 24286.3
 05 11 2024  00 02  03.8528 19112.2 -14984.7 -38.0978 24286.2
 05 11 2024  00 03  03.8530 19112.1 -14984.7 -38.0978 24286.1
 05 11 2024  00 04  03.8531 19112.1 -14984.7 -38.0979 24286.0
 05 11 2024  00 05  03.8530 19112.1 -14984.7 -38.0978 24286.1
 05 11 2024  00 06  03.8527 19112.0 -14984.6 -38.0979 24285.9
 05 11 2024  00 07  03.8528 19111.9 -14984.6 -38.0979 24285.9
 05 11 2024  00 08  03.8532 19111.9 -14984.6 -38.0980 24285.8
 05 11 2024  00 09  03.8540 19112.2 -14984.6 -38.0975 24286.0
 05 11 2024  00 10  03.8545 19112.6 -14984.5 -38.0968 24286.3
 05 11 2024  00 11  03.8551 19112.8 -14984.4 -38.0962 24286.5
 05 11 2024  00 12  03.8555 19113.0 -14984.3 -38.0959 24286.5
 05 11 2024  00 13  03.8557 19112.9 -14984.3 -38.0959 24286.5
 05 11 2024  00 14  03.8559 19112.9 -14984.3 -38.0959 24286.4
 05 11 2024  00 15  03.8561 19113.2 -14984.2 -38.0954 24286.7
 05 11 2024  00 16  03.8560 19113.5 -14984.2 -38.0949 24286.9
 05 11 2024  00 17  03.8562 19113.9 -14984.2 -38.0942 24287.2
 05 11 2024  00 18  03.8566 19114.1 -14984.2 -38.0939 24287.3
 05 11 2024  00 19  03.8569 19114.3 -14984.1 -38.0936 24287.5
 05 11 2024  00 20  03.8571 19114.6 -14984.1 -38.0931 24287.7
 05 11 2024  00 21  03.8571 19114.7 -14984.1 -38.0930 24287.7
 05 11 2024  00 22  03.8571 19114.5 -14984.1 -38.0931 24287.6
 05 11 2024  00 23  03.8571 19114.7 -14984.0 -38.0928 24287.7
 05 11 2024  00 24  03.8570 19114.6 -14984.0 -38.0930 24287.7
 05 11 2024  00 25  03.8573 19114.8 -14984.1 -38.0928 24287.8
 05 11 2024  00 26  03.8573 19114.9 -14984.0 -38.0926 24287.9
 05 11 2024  00 27  03.8575 19115.0 -14984.0 -38.0924 24287.9
 05 11 2024  00 28  03.8574 19115.0 -14984.0 -38.0925 24287.9
 05 11 2024  00 29  03.8573 19115.0 -14984.0 -38.0925 24287.9
 05 11 2024  00 30  03.8570 19115.0 -14984.0 -38.0925 24287.9
 05 11 2024  00 31  03.8571 19115.1 -14984.1 -38.0923 24288.1
 05 11 2024  00 32  03.8571 19115.4 -14984.1 -38.0919 24288.3
 05 11 2024  00 33  03.8568 19115.8 -14984.0 -38.0912 24288.6
 05 11 2024  00 34  03.8569 19116.0 -14984.1 -38.0910 24288.7
 05 11 2024  00 35  03.8571 19116.3 -14984.1 -38.0906 24289.0
 05 11 2024  00 36  03.8566 19116.7 -14984.1 -38.0901 24289.3
 05 11 2024  00 37  03.8558 19116.8 -14984.1 -38.0899 24289.4
 05 11 2024  00 38  03.8554 19117.0 -14984.1 -38.0897 24289.5
 05 11 2024  00 39  03.8555 19116.9 -14984.1 -38.0899 24289.5
 05 11 2024  00 40  03.8556 19117.2 -14984.2 -38.0895 24289.8
 05 11 2024  00 41  03.8553 19117.5 -14984.2 -38.0890 24290.0
 05 11 2024  00 42  03.8551 19117.8 -14984.2 -38.0886 24290.2
 05 11 2024  00 43  03.8550 19118.3 -14984.2 -38.0879 24290.6
 05 11 2024  00 44  03.8548 19118.6 -14984.2 -38.0875 24290.8
 05 11 2024  00 45  03.8548 19118.8 -14984.2 -38.0872 24291.1
 05 11 2024  00 46  03.8547 19119.2 -14984.2 -38.0865 24291.4
 05 11 2024  00 47  03.8545 19119.5 -14984.2 -38.0862 24291.6
 05 11 2024  00 48  03.8543 19119.7 -14984.2 -38.0859 24291.8
 05 11 2024  00 49  03.8542 19119.7 -14984.2 -38.0859 24291.7
 05 11 2024  00 50  03.8542 19119.8 -14984.2 -38.0858 24291.8
 05 11 2024  00 51  03.8544 19119.9 -14984.2 -38.0856 24291.9
 05 11 2024  00 52  03.8546 19120.0 -14984.2 -38.0854 24292.0
 05 11 2024  00 53  03.8545 19120.2 -14984.2 -38.0853 24292.1
 05 11 2024  00 54  03.8544 19120.2 -14984.2 -38.0852 24292.1
 05 11 2024  00 55  03.8543 19119.9 -14984.2 -38.0855 24291.9
 05 11 2024  00 56  03.8541 19119.6 -14984.2 -38.0860 24291.7
 05 11 2024  00 57  03.8542 19119.7 -14984.3 -38.0860 24291.8
 05 11 2024  00 58  03.8544 19119.7 -14984.2 -38.0859 24291.8
 05 11 2024  00 59  03.8544 19119.9 -14984.2 -38.0856 24291.8
 05 11 2024  01 00  03.8542 19119.9 -14984.1 -38.0855 24291.9
 05 11 2024  01 01  03.8537 19119.9 -14984.2 -38.0855 24291.9
 05 11 2024  01 02  03.8532 19120.0 -14984.1 -38.0853 24292.0
 05 11 2024  01 03  03.8531 19120.2 -14984.2 -38.0851 24292.1
 05 11 2024  01 04  03.8527 19120.2 -14984.3 -38.0852 24292.2
 05 11 2024  01 05  03.8523 19120.1 -14984.3 -38.0855 24292.1
 05 11 2024  01 06  03.8523 19120.0 -14984.3 -38.0856 24292.1
 05 11 2024  01 07  03.8525 19120.1 -14984.3 -38.0855 24292.1
 05 11 2024  01 08  03.8523 19120.0 -14984.4 -38.0859 24292.1
 05 11 2024  01 09  03.8522 19120.3 -14984.3 -38.0853 24292.3
 05 11 2024  01 10  03.8522 19120.4 -14984.3 -38.0851 24292.4
 05 11 2024  01 11  03.8523 19120.6 -14984.4 -38.0850 24292.6
 05 11 2024  01 12  03.8520 19120.9 -14984.4 -38.0845 24292.8
 05 11 2024  01 13  03.8515 19121.2 -14984.4 -38.0840 24293.0
 05 11 2024  01 14  03.8513 19120.7 -14984.7 -38.0853 24292.9
 05 11 2024  01 15  03.8505 19121.1 -14984.4 -38.0842 24293.0
 05 11 2024  01 16  03.8505 19120.9 -14984.6 -38.0849 24293.0
 05 11 2024  01 17  03.8502 19121.2 -14984.5 -38.0842 24293.1
 05 11 2024  01 18  03.8504 19121.3 -14984.5 -38.0842 24293.2
 05 11 2024  01 19  03.8502 19121.2 -14984.6 -38.0844 24293.2
 05 11 2024  01 20  03.8499 19121.0 -14984.6 -38.0848 24293.0
 05 11 2024  01 21  03.8498 19120.8 -14984.7 -38.0851 24292.9
 05 11 2024  01 22  03.8496 19120.7 -14984.7 -38.0853 24292.9
 05 11 2024  01 23  03.8495 19120.8 -14984.7 -38.0852 24293.0
 05 11 2024  01 24  03.8494 19121.4 -14984.8 -38.0845 24293.4
 05 11 2024  01 25  03.8493 19122.1 -14984.7 -38.0834 24293.9
 05 11 2024  01 26  03.8484 19122.4 -14984.8 -38.0830 24294.2
 05 11 2024  01 27  03.8474 19122.4 -14984.8 -38.0830 24294.2
 05 11 2024  01 28  03.8469 19122.7 -14984.8 -38.0827 24294.5
 05 11 2024  01 29  03.8468 19123.0 -14984.9 -38.0823 24294.8
 05 11 2024  01 30  03.8466 19123.3 -14984.9 -38.0820 24295.0
 05 11 2024  01 31  03.8466 19123.5 -14985.0 -38.0818 24295.2
 05 11 2024  01 32  03.8465 19123.6 -14985.0 -38.0816 24295.3
 05 11 2024  01 33  03.8462 19123.7 -14985.0 -38.0815 24295.4
 05 11 2024  01 34  03.8459 19123.6 -14985.0 -38.0817 24295.3
 05 11 2024  01 35  03.8461 19123.8 -14985.0 -38.0814 24295.5
 05 11 2024  01 36  03.8461 19124.1 -14985.0 -38.0810 24295.7
 05 11 2024  01 37  03.8461 19124.5 -14985.0 -38.0803 24296.0
 05 11 2024  01 38  03.8456 19125.0 -14985.0 -38.0797 24296.4
 05 11 2024  01 39  03.8453 19125.1 -14985.0 -38.0795 24296.5
 05 11 2024  01 40  03.8451 19125.3 -14985.0 -38.0792 24296.7
 05 11 2024  01 41  03.8451 19125.7 -14985.0 -38.0786 24297.0
 05 11 2024  01 42  03.8451 19126.0 -14985.0 -38.0782 24297.2
 05 11 2024  01 43  03.8452 19126.1 -14984.9 -38.0780 24297.2
 05 11 2024  01 44  03.8452 19125.9 -14984.9 -38.0782 24297.1
 05 11 2024  01 45  03.8455 19125.6 -14984.9 -38.0786 24296.9
 05 11 2024  01 46  03.8455 19125.5 -14984.9 -38.0788 24296.7
 05 11 2024  01 47  03.8456 19125.5 -14984.9 -38.0788 24296.7
 05 11 2024  01 48  03.8456 19125.2 -14984.9 -38.0791 24296.5
 05 11 2024  01 49  03.8457 19124.9 -14984.9 -38.0796 24296.2
 05 11 2024  01 50  03.8456 19124.5 -14984.8 -38.0801 24295.9
 05 11 2024  01 51  03.8456 19124.3 -14984.8 -38.0804 24295.8
 05 11 2024  01 52  03.8455 19124.2 -14984.9 -38.0805 24295.7
 05 11 2024  01 53  03.8456 19124.3 -14984.8 -38.0804 24295.8
 05 11 2024  01 54  03.8454 19124.0 -14984.8 -38.0808 24295.5
 05 11 2024  01 55  03.8452 19123.7 -14984.9 -38.0813 24295.3
 05 11 2024  01 56  03.8448 19123.4 -14984.9 -38.0818 24295.1
 05 11 2024  01 57  03.8444 19123.2 -14984.9 -38.0821 24295.0
 05 11 2024  01 58  03.8444 19123.1 -14985.0 -38.0824 24294.9
 05 11 2024  01 59  03.8442 19123.0 -14985.0 -38.0825 24294.9
 05 11 2024  02 00  03.8440 19123.0 -14985.0 -38.0826 24294.8
 05 11 2024  02 01  03.8438 19122.9 -14985.1 -38.0828 24294.8
 05 11 2024  02 02  03.8438 19122.9 -14985.1 -38.0829 24294.8
 05 11 2024  02 03  03.8438 19122.8 -14985.1 -38.0830 24294.8
 05 11 2024  02 04  03.8439 19122.8 -14985.1 -38.0831 24294.7
 05 11 2024  02 05  03.8441 19122.8 -14985.1 -38.0831 24294.8
 05 11 2024  02 06  03.8443 19122.7 -14985.1 -38.0833 24294.7
 05 11 2024  02 07  03.8446 19122.7 -14985.1 -38.0833 24294.7
 05 11 2024  02 08  03.8448 19123.0 -14985.1 -38.0828 24294.9
 05 11 2024  02 09  03.8448 19123.0 -14985.1 -38.0828 24294.9
 05 11 2024  02 10  03.8449 19123.1 -14985.1 -38.0826 24295.0
 05 11 2024  02 11  03.8447 19123.3 -14985.1 -38.0822 24295.1
 05 11 2024  02 12  03.8444 19123.5 -14985.1 -38.0820 24295.3
 05 11 2024  02 13  03.8444 19123.7 -14985.1 -38.0818 24295.4
 05 11 2024  02 14  03.8439 19123.7 -14985.1 -38.0817 24295.4
 05 11 2024  02 15  03.8434 19123.9 -14985.1 -38.0815 24295.6
 05 11 2024  02 16  03.8431 19124.1 -14985.1 -38.0812 24295.8
 05 11 2024  02 17  03.8430 19124.3 -14985.1 -38.0809 24296.0
 05 11 2024  02 18  03.8429 19124.8 -14985.2 -38.0802 24296.4
 05 11 2024  02 19  03.8429 19125.2 -14985.2 -38.0797 24296.7
 05 11 2024  02 20  03.8434 19125.9 -14985.2 -38.0787 24297.2
 05 11 2024  02 21  03.8436 19126.5 -14985.2 -38.0778 24297.7
 05 11 2024  02 22  03.8430 19126.5 -14985.1 -38.0777 24297.7
 05 11 2024  02 23  03.8435 19127.1 -14985.2 -38.0768 24298.2
 05 11 2024  02 24  03.8437 19127.6 -14985.1 -38.0762 24298.5
 05 11 2024  02 25  03.8438 19127.8 -14985.1 -38.0758 24298.7
 05 11 2024  02 26  03.8445 19128.8 -14985.1 -38.0743 24299.5
 05 11 2024  02 27  03.8448 19130.0 -14985.0 -38.0724 24300.4
 05 11 2024  02 28  03.8447 19130.8 -14985.0 -38.0712 24300.9
 05 11 2024  02 29  03.8444 19131.2 -14984.9 -38.0704 24301.3
 05 11 2024  02 30  03.8441 19131.9 -14984.9 -38.0694 24301.8
 05 11 2024  02 31  03.8433 19132.0 -14984.9 -38.0693 24301.8
 05 11 2024  02 32  03.8423 19131.8 -14984.9 -38.0696 24301.7
 05 11 2024  02 33  03.8415 19131.6 -14985.0 -38.0701 24301.6
 05 11 2024  02 34  03.8410 19131.8 -14985.1 -38.0699 24301.8
 05 11 2024  02 35  03.8407 19132.0 -14985.1 -38.0697 24302.0
 05 11 2024  02 36  03.8398 19131.6 -14985.2 -38.0703 24301.7
 05 11 2024  02 37  03.8392 19131.7 -14985.2 -38.0704 24301.8
 05 11 2024  02 38  03.8392 19131.9 -14985.3 -38.0701 24302.0
 05 11 2024  02 39  03.8394 19132.2 -14985.3 -38.0698 24302.2
 05 11 2024  02 40  03.8395 19132.3 -14985.3 -38.0697 24302.4
 05 11 2024  02 41  03.8398 19132.4 -14985.3 -38.0695 24302.4
 05 11 2024  02 42  03.8398 19132.1 -14985.3 -38.0699 24302.1
 05 11 2024  02 43  03.8397 19131.6 -14985.3 -38.0706 24301.8
 05 11 2024  02 44  03.8396 19131.4 -14985.4 -38.0710 24301.7
 05 11 2024  02 45  03.8390 19130.9 -14985.4 -38.0718 24301.3
 05 11 2024  02 46  03.8385 19130.5 -14985.4 -38.0724 24301.0
 05 11 2024  02 47  03.8380 19130.2 -14985.5 -38.0730 24300.8
 05 11 2024  02 48  03.8379 19130.2 -14985.6 -38.0731 24300.9
 05 11 2024  02 49  03.8376 19129.8 -14985.6 -38.0738 24300.5
 05 11 2024  02 50  03.8367 19129.3 -14985.7 -38.0747 24300.2
 05 11 2024  02 51  03.8364 19128.9 -14985.7 -38.0754 24299.9
 05 11 2024  02 52  03.8363 19128.2 -14985.8 -38.0764 24299.4
 05 11 2024  02 53  03.8364 19128.2 -14985.8 -38.0765 24299.5
 05 11 2024  02 54  03.8367 19128.2 -14985.8 -38.0766 24299.4
 05 11 2024  02 55  03.8364 19128.0 -14985.9 -38.0769 24299.3
 05 11 2024  02 56  03.8370 19128.3 -14985.9 -38.0765 24299.6
 05 11 2024  02 57  03.8372 19128.3 -14985.9 -38.0765 24299.5
 05 11 2024  02 58  03.8375 19128.3 -14985.8 -38.0764 24299.5
 05 11 2024  02 59  03.8376 19128.3 -14985.8 -38.0764 24299.6
 05 11 2024  03 00  03.8375 19128.4 -14985.8 -38.0763 24299.6
 05 11 2024  03 01  03.8371 19128.6 -14985.8 -38.0760 24299.8
 05 11 2024  03 02  03.8368 19128.7 -14985.9 -38.0759 24299.8
 05 11 2024  03 03  03.8363 19128.6 -14985.9 -38.0760 24299.8
 05 11 2024  03 04  03.8357 19128.4 -14985.9 -38.0764 24299.6
 05 11 2024  03 05  03.8349 19127.9 -14986.0 -38.0772 24299.3
 05 11 2024  03 06  03.8343 19127.9 -14986.0 -38.0773 24299.3
 05 11 2024  03 07  03.8341 19128.0 -14986.1 -38.0773 24299.4
 05 11 2024  03 08  03.8338 19128.2 -14986.1 -38.0771 24299.6
 05 11 2024  03 09  03.8336 19128.4 -14986.1 -38.0769 24299.8
 05 11 2024  03 10  03.8332 19128.7 -14986.2 -38.0764 24300.1
 05 11 2024  03 11  03.8328 19129.0 -14986.2 -38.0761 24300.3
 05 11 2024  03 12  03.8326 19128.9 -14986.2 -38.0762 24300.3
 05 11 2024  03 13  03.8325 19129.0 -14986.3 -38.0762 24300.3
 05 11 2024  03 14  03.8324 19128.8 -14986.3 -38.0766 24300.2
 05 11 2024  03 15  03.8323 19128.6 -14986.3 -38.0769 24300.1
 05 11 2024  03 16  03.8323 19128.5 -14986.3 -38.0770 24300.0
 05 11 2024  03 17  03.8320 19128.4 -14986.3 -38.0772 24300.0
 05 11 2024  03 18  03.8318 19128.3 -14986.4 -38.0774 24299.9
 05 11 2024  03 19  03.8318 19128.4 -14986.4 -38.0774 24299.9
 05 11 2024  03 20  03.8318 19128.5 -14986.4 -38.0772 24300.0
 05 11 2024  03 21  03.8320 19128.7 -14986.4 -38.0769 24300.2
 05 11 2024  03 22  03.8321 19128.8 -14986.4 -38.0767 24300.3
 05 11 2024  03 23  03.8321 19129.2 -14986.4 -38.0762 24300.6
 05 11 2024  03 24  03.8322 19129.6 -14986.4 -38.0755 24300.9
 05 11 2024  03 25  03.8322 19129.9 -14986.3 -38.0751 24301.1
 05 11 2024  03 26  03.8322 19130.0 -14986.3 -38.0748 24301.2
 05 11 2024  03 27  03.8320 19129.9 -14986.3 -38.0750 24301.1
 05 11 2024  03 28  03.8319 19129.7 -14986.3 -38.0753 24300.9
 05 11 2024  03 29  03.8319 19129.5 -14986.3 -38.0756 24300.7
 05 11 2024  03 30  03.8319 19129.3 -14986.3 -38.0758 24300.7
 05 11 2024  03 31  03.8318 19129.4 -14986.3 -38.0758 24300.7
 05 11 2024  03 32  03.8317 19129.4 -14986.4 -38.0757 24300.7
 05 11 2024  03 33  03.8316 19129.4 -14986.4 -38.0757 24300.7
 05 11 2024  03 34  03.8314 19129.4 -14986.4 -38.0757 24300.7
 05 11 2024  03 35  03.8312 19129.4 -14986.4 -38.0758 24300.7
 05 11 2024  03 36  03.8309 19129.3 -14986.4 -38.0759 24300.7
 05 11 2024  03 37  03.8304 19129.2 -14986.4 -38.0761 24300.6
 05 11 2024  03 38  03.8302 19129.3 -14986.4 -38.0761 24300.7
 05 11 2024  03 39  03.8300 19129.5 -14986.5 -38.0758 24300.9
 05 11 2024  03 40  03.8296 19129.8 -14986.5 -38.0754 24301.1
 05 11 2024  03 41  03.8293 19129.9 -14986.5 -38.0753 24301.2
 05 11 2024  03 42  03.8291 19130.0 -14986.5 -38.0752 24301.3
 05 11 2024  03 43  03.8288 19130.1 -14986.5 -38.0751 24301.4
 05 11 2024  03 44  03.8288 19130.2 -14986.6 -38.0749 24301.5
 05 11 2024  03 45  03.8288 19130.4 -14986.6 -38.0747 24301.7
 05 11 2024  03 46  03.8286 19130.6 -14986.6 -38.0744 24301.8
 05 11 2024  03 47  03.8286 19130.8 -14986.6 -38.0742 24302.0
 05 11 2024  03 48  03.8287 19131.1 -14986.6 -38.0737 24302.2
 05 11 2024  03 49  03.8284 19131.2 -14986.6 -38.0736 24302.3
 05 11 2024  03 50  03.8280 19130.9 -14986.6 -38.0740 24302.0
 05 11 2024  03 51  03.8281 19130.8 -14986.6 -38.0742 24302.0
 05 11 2024  03 52  03.8282 19130.7 -14986.6 -38.0743 24301.9
 05 11 2024  03 53  03.8286 19130.6 -14986.6 -38.0744 24301.9
 05 11 2024  03 54  03.8288 19130.5 -14986.6 -38.0746 24301.8
 05 11 2024  03 55  03.8288 19130.4 -14986.6 -38.0747 24301.7
 05 11 2024  03 56  03.8287 19130.3 -14986.6 -38.0749 24301.6
 05 11 2024  03 57  03.8284 19130.2 -14986.6 -38.0749 24301.5
 05 11 2024  03 58  03.8282 19130.2 -14986.6 -38.0750 24301.4
 05 11 2024  03 59  03.8281 19130.2 -14986.5 -38.0750 24301.4
 05 11 2024  04 00  03.8277 19129.9 -14986.5 -38.0754 24301.2
 05 11 2024  04 01  03.8272 19129.8 -14986.5 -38.0755 24301.1
 05 11 2024  04 02  03.8267 19129.6 -14986.5 -38.0758 24301.0
 05 11 2024  04 03  03.8261 19129.4 -14986.6 -38.0761 24300.9
 05 11 2024  04 04  03.8257 19129.3 -14986.6 -38.0764 24300.8
 05 11 2024  04 05  03.8256 19129.2 -14986.6 -38.0765 24300.8
 05 11 2024  04 06  03.8255 19129.2 -14986.7 -38.0767 24300.7
 05 11 2024  04 07  03.8254 19129.4 -14986.7 -38.0763 24300.9
 05 11 2024  04 08  03.8252 19129.4 -14986.7 -38.0764 24300.9
 05 11 2024  04 09  03.8250 19129.4 -14986.7 -38.0764 24300.9
 05 11 2024  04 10  03.8249 19129.4 -14986.7 -38.0764 24300.9
 05 11 2024  04 11  03.8244 19129.2 -14986.7 -38.0767 24300.7
 05 11 2024  04 12  03.8241 19129.4 -14986.7 -38.0764 24300.9
 05 11 2024  04 13  03.8239 19129.7 -14986.7 -38.0760 24301.2
 05 11 2024  04 14  03.8237 19130.0 -14986.7 -38.0756 24301.4
 05 11 2024  04 15  03.8233 19129.7 -14986.7 -38.0760 24301.2
 05 11 2024  04 16  03.8231 19129.7 -14986.8 -38.0762 24301.2
 05 11 2024  04 17  03.8225 19129.4 -14986.8 -38.0766 24301.0
 05 11 2024  04 18  03.8220 19129.2 -14986.8 -38.0769 24300.9
 05 11 2024  04 19  03.8216 19129.0 -14986.9 -38.0774 24300.7
 05 11 2024  04 20  03.8212 19128.9 -14987.0 -38.0776 24300.7
 05 11 2024  04 21  03.8212 19128.7 -14987.0 -38.0779 24300.6
 05 11 2024  04 22  03.8213 19128.6 -14987.0 -38.0781 24300.5
 05 11 2024  04 23  03.8215 19128.6 -14987.0 -38.0783 24300.5
 05 11 2024  04 24  03.8216 19128.5 -14987.1 -38.0784 24300.5
 05 11 2024  04 25  03.8216 19128.4 -14987.1 -38.0785 24300.4
 05 11 2024  04 26  03.8218 19128.2 -14987.1 -38.0789 24300.2
 05 11 2024  04 27  03.8219 19128.0 -14987.1 -38.0791 24300.1
 05 11 2024  04 28  03.8220 19128.0 -14987.1 -38.0791 24300.0
 05 11 2024  04 29  03.8219 19128.0 -14987.0 -38.0791 24300.0
 05 11 2024  04 30  03.8219 19128.0 -14987.0 -38.0791 24300.0
 05 11 2024  04 31  03.8218 19128.0 -14987.0 -38.0790 24300.0
 05 11 2024  04 32  03.8219 19128.0 -14987.0 -38.0790 24300.1
 05 11 2024  04 33  03.8219 19128.1 -14987.0 -38.0789 24300.1
 05 11 2024  04 34  03.8220 19128.2 -14987.0 -38.0787 24300.2
 05 11 2024  04 35  03.8220 19128.4 -14987.0 -38.0784 24300.3
 05 11 2024  04 36  03.8218 19128.6 -14987.0 -38.0781 24300.4
 05 11 2024  04 37  03.8216 19128.6 -14986.9 -38.0780 24300.4
 05 11 2024  04 38  03.8213 19128.4 -14987.0 -38.0783 24300.3
 05 11 2024  04 39  03.8210 19128.3 -14987.0 -38.0786 24300.2
 05 11 2024  04 40  03.8208 19128.2 -14987.0 -38.0787 24300.2
 05 11 2024  04 41  03.8207 19128.1 -14987.0 -38.0788 24300.1
 05 11 2024  04 42  03.8207 19128.0 -14987.0 -38.0790 24300.0
 05 11 2024  04 43  03.8206 19128.0 -14987.0 -38.0790 24300.1
 05 11 2024  04 44  03.8203 19128.1 -14987.0 -38.0790 24300.1
 05 11 2024  04 45  03.8200 19128.1 -14987.0 -38.0789 24300.1
 05 11 2024  04 46  03.8199 19128.2 -14987.0 -38.0789 24300.2
 05 11 2024  04 47  03.8199 19128.1 -14987.1 -38.0790 24300.2
 05 11 2024  04 48  03.8202 19128.2 -14987.1 -38.0788 24300.2
 05 11 2024  04 49  03.8202 19128.3 -14987.1 -38.0787 24300.2
 05 11 2024  04 50  03.8200 19128.2 -14987.1 -38.0787 24300.2
 05 11 2024  04 51  03.8199 19128.4 -14987.1 -38.0785 24300.4
 05 11 2024  04 52  03.8198 19128.6 -14987.0 -38.0782 24300.5
 05 11 2024  04 53  03.8197 19128.8 -14987.0 -38.0779 24300.7
 05 11 2024  04 54  03.8195 19129.0 -14987.0 -38.0777 24300.8
 05 11 2024  04 55  03.8193 19128.8 -14987.0 -38.0779 24300.7
 05 11 2024  04 56  03.8191 19128.6 -14987.0 -38.0782 24300.5
 05 11 2024  04 57  03.8189 19128.3 -14987.0 -38.0786 24300.3
 05 11 2024  04 58  03.8185 19128.2 -14987.1 -38.0788 24300.2
 05 11 2024  04 59  03.8183 19128.2 -14987.1 -38.0788 24300.2
 05 11 2024  05 00  03.8179 19128.1 -14987.1 -38.0790 24300.1
 05 11 2024  05 01  03.8178 19128.0 -14987.1 -38.0792 24300.1
 05 11 2024  05 02  03.8179 19128.0 -14987.1 -38.0792 24300.0
 05 11 2024  05 03  03.8180 19128.0 -14987.1 -38.0792 24300.0
 05 11 2024  05 04  03.8180 19128.0 -14987.1 -38.0791 24300.0
 05 11 2024  05 05  03.8180 19128.1 -14987.0 -38.0790 24300.1
 05 11 2024  05 06  03.8179 19128.1 -14987.0 -38.0789 24300.1
 05 11 2024  05 07  03.8178 19128.0 -14987.0 -38.0790 24300.0
 05 11 2024  05 08  03.8177 19128.0 -14987.0 -38.0790 24300.0
 05 11 2024  05 09  03.8174 19128.1 -14987.0 -38.0789 24300.1
 05 11 2024  05 10  03.8171 19128.1 -14987.0 -38.0788 24300.1
 05 11 2024  05 11  03.8168 19128.1 -14986.9 -38.0787 24300.1
 05 11 2024  05 12  03.8165 19128.0 -14986.9 -38.0788 24300.0
 05 11 2024  05 13  03.8163 19128.0 -14986.9 -38.0788 24299.9
 05 11 2024  05 14  03.8161 19128.0 -14986.9 -38.0788 24300.0
 05 11 2024  05 15  03.8160 19128.1 -14986.9 -38.0786 24300.1
 05 11 2024  05 16  03.8159 19128.2 -14986.9 -38.0785 24300.1
 05 11 2024  05 17  03.8158 19128.4 -14986.9 -38.0783 24300.2
 05 11 2024  05 18  03.8160 19128.7 -14986.9 -38.0778 24300.5
 05 11 2024  05 19  03.8160 19128.9 -14986.9 -38.0774 24300.6
