CHILLAN EMBRACE-14 <310> 1 Min. Reported data

 DD MM YYYY  HH MM   D(Deg)  H(nT)   Z(nT)   I(Deg)   F(nT)

 06 11 2023  00 00  04.0033 19095.4 -14995.5 -38.1423 24279.6
 06 11 2023  00 01  04.0029 19095.1 -14995.7 -38.1431 24279.5
 06 11 2023  00 02  04.0026 19094.8 -14995.9 -38.1439 24279.4
 06 11 2023  00 03  04.0021 19095.2 -14996.1 -38.1437 24279.8
 06 11 2023  00 04  04.0018 19095.6 -14996.3 -38.1434 24280.2
 06 11 2023  00 05  04.0012 19095.5 -14996.4 -38.1438 24280.3
 06 11 2023  00 06  04.0008 19095.5 -14996.6 -38.1442 24280.4
 06 11 2023  00 07  04.0007 19095.9 -14996.8 -38.1439 24280.8
 06 11 2023  00 08  04.0005 19096.4 -14996.9 -38.1434 24281.3
 06 11 2023  00 09  04.0000 19096.4 -14997.1 -38.1436 24281.4
 06 11 2023  00 10  03.9987 19096.3 -14997.2 -38.1440 24281.4
 06 11 2023  00 11  03.9976 19096.2 -14997.4 -38.1446 24281.4
 06 11 2023  00 12  03.9968 19096.2 -14997.5 -38.1449 24281.5
 06 11 2023  00 13  03.9963 19096.2 -14997.7 -38.1452 24281.6
 06 11 2023  00 14  03.9959 19096.3 -14997.9 -38.1454 24281.8
 06 11 2023  00 15  03.9954 19096.5 -14998.0 -38.1454 24282.0
 06 11 2023  00 16  03.9948 19097.0 -14998.2 -38.1449 24282.5
 06 11 2023  00 17  03.9945 19097.6 -14998.3 -38.1442 24283.0
 06 11 2023  00 18  03.9942 19097.9 -14998.4 -38.1439 24283.4
 06 11 2023  00 19  03.9938 19098.4 -14998.5 -38.1435 24283.8
 06 11 2023  00 20  03.9933 19098.6 -14998.6 -38.1433 24284.1
 06 11 2023  00 21  03.9926 19098.7 -14998.7 -38.1433 24284.2
 06 11 2023  00 22  03.9916 19098.7 -14998.8 -38.1435 24284.2
 06 11 2023  00 23  03.9906 19098.5 -14998.9 -38.1440 24284.2
 06 11 2023  00 24  03.9898 19098.7 -14999.0 -38.1439 24284.4
 06 11 2023  00 25  03.9890 19099.1 -14999.1 -38.1437 24284.7
 06 11 2023  00 26  03.9884 19099.4 -14999.2 -38.1433 24285.1
 06 11 2023  00 27  03.9877 19099.8 -14999.3 -38.1429 24285.4
 06 11 2023  00 28  03.9863 19100.0 -14999.4 -38.1427 24285.7
 06 11 2023  00 29  03.9848 19100.1 -14999.5 -38.1428 24285.8
 06 11 2023  00 30  03.9835 19100.2 -14999.6 -38.1430 24285.9
 06 11 2023  00 31  03.9826 19100.4 -14999.8 -38.1430 24286.2
 06 11 2023  00 32  03.9820 19100.7 -14999.9 -38.1427 24286.5
 06 11 2023  00 33  03.9817 19101.0 -15000.0 -38.1425 24286.8
 06 11 2023  00 34  03.9812 19101.5 -15000.1 -38.1420 24287.3
 06 11 2023  00 35  03.9808 19102.0 -15000.2 -38.1414 24287.7
 06 11 2023  00 36  03.9806 19102.3 -15000.2 -38.1409 24287.9
 06 11 2023  00 37  03.9797 19102.7 -15000.3 -38.1405 24288.3
 06 11 2023  00 38  03.9791 19102.7 -15000.3 -38.1406 24288.3
 06 11 2023  00 39  03.9783 19103.0 -15000.4 -38.1402 24288.6
 06 11 2023  00 40  03.9780 19104.0 -15000.5 -38.1390 24289.4
 06 11 2023  00 41  03.9777 19104.7 -15000.5 -38.1379 24290.0
 06 11 2023  00 42  03.9775 19105.0 -15000.5 -38.1376 24290.3
 06 11 2023  00 43  03.9771 19105.2 -15000.6 -38.1374 24290.4
 06 11 2023  00 44  03.9766 19105.1 -15000.6 -38.1376 24290.4
 06 11 2023  00 45  03.9763 19104.9 -15000.7 -38.1380 24290.3
 06 11 2023  00 46  03.9762 19104.6 -15000.7 -38.1386 24290.1
 06 11 2023  00 47  03.9763 19104.5 -15000.8 -38.1387 24290.0
 06 11 2023  00 48  03.9764 19104.8 -15000.8 -38.1383 24290.3
 06 11 2023  00 49  03.9764 19105.3 -15000.8 -38.1376 24290.7
 06 11 2023  00 50  03.9759 19105.9 -15000.8 -38.1369 24291.1
 06 11 2023  00 51  03.9750 19106.3 -15000.9 -38.1363 24291.5
 06 11 2023  00 52  03.9737 19106.6 -15000.9 -38.1360 24291.8
 06 11 2023  00 53  03.9724 19107.2 -15001.0 -38.1354 24292.3
 06 11 2023  00 54  03.9712 19107.2 -15001.1 -38.1355 24292.4
 06 11 2023  00 55  03.9699 19107.1 -15001.3 -38.1360 24292.4
 06 11 2023  00 56  03.9685 19107.0 -15001.5 -38.1365 24292.4
 06 11 2023  00 57  03.9675 19106.9 -15001.7 -38.1369 24292.5
 06 11 2023  00 58  03.9665 19106.9 -15001.8 -38.1372 24292.5
 06 11 2023  00 59  03.9650 19106.9 -15002.0 -38.1376 24292.6
 06 11 2023  01 00  03.9637 19106.8 -15002.1 -38.1379 24292.7
 06 11 2023  01 01  03.9627 19106.8 -15002.3 -38.1382 24292.8
 06 11 2023  01 02  03.9617 19106.8 -15002.5 -38.1386 24292.9
 06 11 2023  01 03  03.9606 19106.7 -15002.7 -38.1391 24292.9
 06 11 2023  01 04  03.9595 19106.7 -15002.8 -38.1394 24293.0
 06 11 2023  01 05  03.9584 19106.6 -15003.0 -38.1398 24293.1
 06 11 2023  01 06  03.9572 19106.8 -15003.2 -38.1398 24293.3
 06 11 2023  01 07  03.9568 19107.3 -15003.3 -38.1394 24293.8
 06 11 2023  01 08  03.9562 19107.6 -15003.5 -38.1393 24294.1
 06 11 2023  01 09  03.9554 19107.8 -15003.6 -38.1392 24294.3
 06 11 2023  01 10  03.9551 19108.2 -15003.7 -38.1388 24294.7
 06 11 2023  01 11  03.9547 19108.5 -15003.8 -38.1386 24295.0
 06 11 2023  01 12  03.9545 19108.8 -15003.9 -38.1383 24295.3
 06 11 2023  01 13  03.9547 19108.8 -15003.9 -38.1384 24295.3
 06 11 2023  01 14  03.9549 19108.9 -15004.0 -38.1384 24295.5
 06 11 2023  01 15  03.9550 19108.9 -15004.1 -38.1384 24295.6
 06 11 2023  01 16  03.9544 19108.7 -15004.1 -38.1388 24295.4
 06 11 2023  01 17  03.9538 19108.5 -15004.2 -38.1393 24295.2
 06 11 2023  01 18  03.9534 19108.3 -15004.2 -38.1396 24295.1
 06 11 2023  01 19  03.9534 19108.4 -15004.3 -38.1395 24295.3
 06 11 2023  01 20  03.9531 19108.5 -15004.3 -38.1395 24295.3
 06 11 2023  01 21  03.9524 19108.5 -15004.4 -38.1396 24295.4
 06 11 2023  01 22  03.9522 19108.6 -15004.4 -38.1395 24295.5
 06 11 2023  01 23  03.9525 19108.7 -15004.4 -38.1394 24295.5
 06 11 2023  01 24  03.9522 19108.7 -15004.4 -38.1394 24295.6
 06 11 2023  01 25  03.9520 19108.6 -15004.4 -38.1396 24295.5
 06 11 2023  01 26  03.9517 19108.5 -15004.5 -38.1397 24295.5
 06 11 2023  01 27  03.9517 19108.5 -15004.5 -38.1398 24295.5
 06 11 2023  01 28  03.9519 19108.4 -15004.5 -38.1400 24295.3
 06 11 2023  01 29  03.9520 19108.3 -15004.5 -38.1400 24295.3
 06 11 2023  01 30  03.9523 19108.7 -15004.4 -38.1395 24295.6
 06 11 2023  01 31  03.9525 19109.3 -15004.4 -38.1386 24296.0
 06 11 2023  01 32  03.9524 19109.8 -15004.4 -38.1378 24296.4
 06 11 2023  01 33  03.9522 19109.9 -15004.4 -38.1375 24296.5
 06 11 2023  01 34  03.9520 19110.2 -15004.3 -38.1370 24296.7
 06 11 2023  01 35  03.9514 19110.3 -15004.3 -38.1369 24296.8
 06 11 2023  01 36  03.9507 19110.4 -15004.3 -38.1367 24296.9
 06 11 2023  01 37  03.9506 19110.7 -15004.3 -38.1364 24297.1
 06 11 2023  01 38  03.9506 19110.8 -15004.3 -38.1362 24297.1
 06 11 2023  01 39  03.9507 19110.5 -15004.3 -38.1366 24296.9
 06 11 2023  01 40  03.9511 19110.3 -15004.3 -38.1369 24296.7
 06 11 2023  01 41  03.9515 19110.0 -15004.3 -38.1373 24296.5
 06 11 2023  01 42  03.9519 19109.6 -15004.3 -38.1378 24296.2
 06 11 2023  01 43  03.9521 19109.1 -15004.2 -38.1384 24295.8
 06 11 2023  01 44  03.9526 19108.9 -15004.2 -38.1387 24295.6
 06 11 2023  01 45  03.9530 19108.9 -15004.2 -38.1388 24295.6
 06 11 2023  01 46  03.9539 19108.7 -15004.2 -38.1390 24295.4
 06 11 2023  01 47  03.9544 19108.9 -15004.1 -38.1386 24295.6
 06 11 2023  01 48  03.9549 19109.6 -15004.1 -38.1375 24296.1
 06 11 2023  01 49  03.9550 19109.7 -15004.1 -38.1373 24296.2
 06 11 2023  01 50  03.9548 19109.4 -15004.0 -38.1378 24295.9
 06 11 2023  01 51  03.9549 19109.2 -15004.1 -38.1380 24295.7
 06 11 2023  01 52  03.9547 19108.6 -15004.1 -38.1389 24295.3
 06 11 2023  01 53  03.9542 19108.2 -15004.1 -38.1395 24295.0
 06 11 2023  01 54  03.9540 19108.2 -15004.1 -38.1395 24295.0
 06 11 2023  01 55  03.9541 19108.3 -15004.1 -38.1394 24295.1
 06 11 2023  01 56  03.9536 19108.1 -15004.2 -38.1398 24294.9
 06 11 2023  01 57  03.9532 19107.8 -15004.2 -38.1404 24294.7
 06 11 2023  01 58  03.9527 19107.5 -15004.3 -38.1409 24294.6
 06 11 2023  01 59  03.9525 19107.4 -15004.3 -38.1411 24294.5
 06 11 2023  02 00  03.9523 19107.0 -15004.4 -38.1418 24294.3
 06 11 2023  02 01  03.9524 19107.1 -15004.4 -38.1418 24294.3
 06 11 2023  02 02  03.9526 19107.5 -15004.5 -38.1413 24294.6
 06 11 2023  02 03  03.9525 19107.3 -15004.5 -38.1416 24294.5
 06 11 2023  02 04  03.9525 19106.9 -15004.5 -38.1422 24294.2
 06 11 2023  02 05  03.9527 19106.4 -15004.5 -38.1429 24293.9
 06 11 2023  02 06  03.9527 19106.0 -15004.5 -38.1435 24293.5
 06 11 2023  02 07  03.9526 19105.7 -15004.5 -38.1440 24293.3
 06 11 2023  02 08  03.9522 19105.5 -15004.6 -38.1443 24293.2
 06 11 2023  02 09  03.9518 19105.4 -15004.6 -38.1446 24293.1
 06 11 2023  02 10  03.9518 19105.3 -15004.6 -38.1447 24293.1
 06 11 2023  02 11  03.9522 19105.6 -15004.6 -38.1443 24293.3
 06 11 2023  02 12  03.9525 19105.6 -15004.6 -38.1443 24293.3
 06 11 2023  02 13  03.9531 19105.6 -15004.6 -38.1443 24293.3
 06 11 2023  02 14  03.9535 19105.5 -15004.6 -38.1444 24293.1
 06 11 2023  02 15  03.9529 19105.2 -15004.6 -38.1449 24292.9
 06 11 2023  02 16  03.9525 19104.8 -15004.6 -38.1455 24292.7
 06 11 2023  02 17  03.9526 19105.0 -15004.7 -38.1453 24292.9
 06 11 2023  02 18  03.9531 19105.5 -15004.7 -38.1446 24293.3
 06 11 2023  02 19  03.9531 19105.8 -15004.7 -38.1442 24293.4
 06 11 2023  02 20  03.9527 19105.6 -15004.7 -38.1445 24293.3
 06 11 2023  02 21  03.9526 19105.5 -15004.7 -38.1447 24293.3
 06 11 2023  02 22  03.9526 19105.6 -15004.8 -38.1446 24293.3
 06 11 2023  02 23  03.9528 19105.7 -15004.8 -38.1444 24293.4
 06 11 2023  02 24  03.9528 19105.8 -15004.8 -38.1442 24293.5
 06 11 2023  02 25  03.9524 19106.0 -15004.8 -38.1441 24293.6
 06 11 2023  02 26  03.9519 19106.1 -15004.8 -38.1439 24293.8
 06 11 2023  02 27  03.9518 19106.3 -15004.8 -38.1436 24294.0
 06 11 2023  02 28  03.9522 19106.7 -15004.9 -38.1432 24294.3
 06 11 2023  02 29  03.9523 19106.9 -15004.9 -38.1429 24294.4
 06 11 2023  02 30  03.9518 19107.1 -15004.9 -38.1426 24294.6
 06 11 2023  02 31  03.9510 19106.8 -15004.9 -38.1430 24294.4
 06 11 2023  02 32  03.9504 19106.9 -15004.9 -38.1430 24294.5
 06 11 2023  02 33  03.9498 19106.8 -15005.0 -38.1432 24294.5
 06 11 2023  02 34  03.9477 19106.6 -15005.0 -38.1436 24294.3
 06 11 2023  02 35  03.9455 19106.2 -15005.2 -38.1445 24294.0
 06 11 2023  02 36  03.9426 19106.2 -15005.3 -38.1447 24294.1
 06 11 2023  02 37  03.9408 19106.7 -15005.4 -38.1442 24294.6
 06 11 2023  02 38  03.9385 19106.7 -15005.5 -38.1444 24294.7
 06 11 2023  02 39  03.9368 19106.7 -15005.7 -38.1447 24294.8
 06 11 2023  02 40  03.9359 19106.9 -15005.8 -38.1446 24295.0
 06 11 2023  02 41  03.9348 19106.9 -15005.9 -38.1448 24295.1
 06 11 2023  02 42  03.9326 19106.8 -15006.0 -38.1452 24295.1
 06 11 2023  02 43  03.9296 19106.7 -15006.2 -38.1457 24295.1
 06 11 2023  02 44  03.9271 19106.7 -15006.4 -38.1460 24295.2
 06 11 2023  02 45  03.9247 19106.4 -15006.6 -38.1468 24295.2
 06 11 2023  02 46  03.9232 19106.2 -15006.8 -38.1475 24295.1
 06 11 2023  02 47  03.9218 19106.1 -15007.0 -38.1481 24295.1
 06 11 2023  02 48  03.9196 19106.3 -15007.2 -38.1481 24295.4
 06 11 2023  02 49  03.9177 19106.6 -15007.4 -38.1480 24295.8
 06 11 2023  02 50  03.9165 19106.7 -15007.6 -38.1482 24296.0
 06 11 2023  02 51  03.9150 19106.9 -15007.8 -38.1483 24296.2
 06 11 2023  02 52  03.9141 19107.2 -15007.9 -38.1481 24296.6
 06 11 2023  02 53  03.9135 19107.6 -15008.1 -38.1478 24296.9
 06 11 2023  02 54  03.9125 19107.8 -15008.2 -38.1477 24297.1
 06 11 2023  02 55  03.9118 19108.1 -15008.3 -38.1474 24297.5
 06 11 2023  02 56  03.9115 19108.3 -15008.4 -38.1474 24297.7
 06 11 2023  02 57  03.9120 19108.2 -15008.5 -38.1477 24297.7
 06 11 2023  02 58  03.9128 19107.8 -15008.5 -38.1483 24297.4
 06 11 2023  02 59  03.9138 19108.1 -15008.5 -38.1479 24297.6
 06 11 2023  03 00  03.9140 19107.5 -15008.5 -38.1488 24297.1
 06 11 2023  03 01  03.9137 19107.1 -15008.5 -38.1494 24296.8
 06 11 2023  03 02  03.9138 19106.9 -15008.5 -38.1497 24296.7
 06 11 2023  03 03  03.9145 19106.5 -15008.5 -38.1501 24296.4
 06 11 2023  03 04  03.9150 19106.0 -15008.5 -38.1509 24296.0
 06 11 2023  03 05  03.9160 19105.1 -15008.4 -38.1521 24295.3
 06 11 2023  03 06  03.9172 19104.3 -15008.4 -38.1531 24294.6
 06 11 2023  03 07  03.9185 19103.5 -15008.3 -38.1541 24293.9
 06 11 2023  03 08  03.9206 19103.3 -15008.2 -38.1544 24293.7
 06 11 2023  03 09  03.9230 19103.2 -15008.1 -38.1543 24293.6
 06 11 2023  03 10  03.9243 19102.6 -15008.0 -38.1548 24293.0
 06 11 2023  03 11  03.9250 19102.1 -15007.8 -38.1553 24292.5
 06 11 2023  03 12  03.9261 19101.8 -15007.7 -38.1556 24292.2
 06 11 2023  03 13  03.9279 19100.8 -15007.6 -38.1568 24291.3
 06 11 2023  03 14  03.9287 19099.8 -15007.5 -38.1581 24290.5
 06 11 2023  03 15  03.9287 19098.6 -15007.4 -38.1597 24289.5
 06 11 2023  03 16  03.9291 19097.3 -15007.4 -38.1616 24288.4
 06 11 2023  03 17  03.9300 19096.4 -15007.4 -38.1629 24287.7
 06 11 2023  03 18  03.9311 19095.5 -15007.3 -38.1640 24287.0
 06 11 2023  03 19  03.9310 19094.3 -15007.3 -38.1656 24286.0
 06 11 2023  03 20  03.9312 19094.2 -15007.3 -38.1660 24285.9
 06 11 2023  03 21  03.9318 19094.9 -15007.3 -38.1649 24286.5
 06 11 2023  03 22  03.9328 19096.2 -15007.1 -38.1627 24287.4
 06 11 2023  03 23  03.9321 19096.9 -15007.0 -38.1613 24287.9
 06 11 2023  03 24  03.9329 19097.8 -15006.8 -38.1598 24288.5
 06 11 2023  03 25  03.9322 19098.6 -15006.7 -38.1584 24289.1
 06 11 2023  03 26  03.9322 19099.9 -15006.6 -38.1564 24290.0
 06 11 2023  03 27  03.9320 19101.2 -15006.5 -38.1543 24290.9
 06 11 2023  03 28  03.9309 19102.1 -15006.4 -38.1528 24291.6
 06 11 2023  03 29  03.9300 19103.6 -15006.4 -38.1505 24292.8
 06 11 2023  03 30  03.9285 19105.6 -15006.3 -38.1475 24294.3
 06 11 2023  03 31  03.9268 19106.8 -15006.3 -38.1457 24295.3
 06 11 2023  03 32  03.9257 19107.9 -15006.3 -38.1442 24296.1
 06 11 2023  03 33  03.9256 19109.2 -15006.4 -38.1423 24297.2
 06 11 2023  03 34  03.9249 19110.2 -15006.4 -38.1408 24298.0
 06 11 2023  03 35  03.9237 19111.0 -15006.3 -38.1397 24298.5
 06 11 2023  03 36  03.9227 19111.3 -15006.4 -38.1392 24298.9
 06 11 2023  03 37  03.9226 19111.6 -15006.3 -38.1387 24299.1
 06 11 2023  03 38  03.9232 19111.9 -15006.3 -38.1383 24299.2
 06 11 2023  03 39  03.9243 19112.0 -15006.2 -38.1379 24299.3
 06 11 2023  03 40  03.9252 19112.0 -15006.0 -38.1377 24299.1
 06 11 2023  03 41  03.9255 19111.8 -15005.9 -38.1377 24298.9
 06 11 2023  03 42  03.9260 19111.8 -15005.8 -38.1374 24298.8
 06 11 2023  03 43  03.9271 19112.2 -15005.6 -38.1365 24299.1
 06 11 2023  03 44  03.9288 19112.5 -15005.5 -38.1358 24299.2
 06 11 2023  03 45  03.9307 19113.1 -15005.2 -38.1345 24299.6
 06 11 2023  03 46  03.9325 19113.4 -15005.0 -38.1337 24299.6
 06 11 2023  03 47  03.9338 19113.5 -15004.8 -38.1331 24299.6
 06 11 2023  03 48  03.9351 19114.1 -15004.6 -38.1318 24299.9
 06 11 2023  03 49  03.9354 19114.3 -15004.4 -38.1311 24300.0
 06 11 2023  03 50  03.9350 19114.5 -15004.2 -38.1307 24300.0
 06 11 2023  03 51  03.9358 19114.5 -15004.1 -38.1304 24300.0
 06 11 2023  03 52  03.9365 19114.4 -15004.0 -38.1303 24299.8
 06 11 2023  03 53  03.9365 19114.1 -15003.9 -38.1306 24299.5
 06 11 2023  03 54  03.9362 19113.3 -15003.8 -38.1315 24298.8
 06 11 2023  03 55  03.9355 19112.8 -15003.8 -38.1322 24298.4
 06 11 2023  03 56  03.9372 19112.8 -15003.6 -38.1320 24298.3
 06 11 2023  03 57  03.9378 19112.9 -15003.6 -38.1318 24298.3
 06 11 2023  03 58  03.9388 19112.6 -15003.4 -38.1318 24298.0
 06 11 2023  03 59  03.9411 19112.3 -15003.2 -38.1319 24297.7
 06 11 2023  04 00  03.9429 19112.4 -15003.0 -38.1315 24297.6
 06 11 2023  04 01  03.9449 19112.4 -15002.8 -38.1310 24297.4
 06 11 2023  04 02  03.9461 19111.9 -15002.6 -38.1313 24297.0
 06 11 2023  04 03  03.9465 19112.1 -15002.4 -38.1307 24297.0
 06 11 2023  04 04  03.9472 19111.9 -15002.2 -38.1306 24296.8
 06 11 2023  04 05  03.9474 19111.3 -15002.1 -38.1314 24296.2
 06 11 2023  04 06  03.9478 19110.4 -15002.1 -38.1325 24295.5
 06 11 2023  04 07  03.9472 19109.5 -15002.0 -38.1338 24294.7
 06 11 2023  04 08  03.9473 19109.2 -15002.0 -38.1343 24294.5
 06 11 2023  04 09  03.9467 19108.9 -15002.1 -38.1348 24294.2
 06 11 2023  04 10  03.9464 19109.0 -15002.1 -38.1347 24294.4
 06 11 2023  04 11  03.9457 19109.1 -15002.1 -38.1346 24294.5
 06 11 2023  04 12  03.9448 19109.0 -15002.2 -38.1348 24294.5
 06 11 2023  04 13  03.9444 19109.1 -15002.3 -38.1348 24294.6
 06 11 2023  04 14  03.9436 19109.4 -15002.4 -38.1345 24294.9
 06 11 2023  04 15  03.9424 19109.9 -15002.5 -38.1340 24295.3
 06 11 2023  04 16  03.9421 19110.6 -15002.6 -38.1332 24295.9
 06 11 2023  04 17  03.9426 19111.4 -15002.6 -38.1321 24296.5
 06 11 2023  04 18  03.9433 19111.8 -15002.6 -38.1315 24296.9
 06 11 2023  04 19  03.9441 19111.9 -15002.5 -38.1312 24296.9
 06 11 2023  04 20  03.9438 19112.1 -15002.5 -38.1309 24297.0
 06 11 2023  04 21  03.9435 19112.5 -15002.4 -38.1302 24297.4
 06 11 2023  04 22  03.9432 19113.0 -15002.4 -38.1295 24297.7
 06 11 2023  04 23  03.9431 19113.4 -15002.4 -38.1289 24298.0
 06 11 2023  04 24  03.9434 19113.8 -15002.4 -38.1281 24298.3
 06 11 2023  04 25  03.9443 19114.9 -15002.3 -38.1265 24299.2
 06 11 2023  04 26  03.9456 19115.2 -15002.2 -38.1259 24299.3
 06 11 2023  04 27  03.9466 19115.0 -15002.1 -38.1259 24299.1
 06 11 2023  04 28  03.9485 19115.0 -15002.0 -38.1257 24299.0
 06 11 2023  04 29  03.9493 19114.6 -15001.8 -38.1259 24298.6
 06 11 2023  04 30  03.9502 19114.5 -15001.6 -38.1259 24298.4
 06 11 2023  04 31  03.9508 19114.3 -15001.5 -38.1259 24298.2
 06 11 2023  04 32  03.9518 19114.2 -15001.3 -38.1258 24298.0
 06 11 2023  04 33  03.9531 19114.1 -15001.2 -38.1255 24297.8
 06 11 2023  04 34  03.9538 19114.2 -15001.0 -38.1250 24297.8
 06 11 2023  04 35  03.9542 19114.6 -15000.8 -38.1242 24298.0
 06 11 2023  04 36  03.9543 19115.0 -15000.7 -38.1233 24298.3
 06 11 2023  04 37  03.9547 19115.5 -15000.6 -38.1225 24298.5
 06 11 2023  04 38  03.9550 19115.9 -15000.5 -38.1216 24298.8
 06 11 2023  04 39  03.9553 19116.6 -15000.4 -38.1204 24299.3
 06 11 2023  04 40  03.9548 19117.0 -15000.3 -38.1197 24299.5
 06 11 2023  04 41  03.9541 19117.4 -15000.2 -38.1190 24299.8
 06 11 2023  04 42  03.9541 19118.3 -15000.2 -38.1176 24300.5
 06 11 2023  04 43  03.9541 19119.2 -15000.2 -38.1162 24301.2
 06 11 2023  04 44  03.9542 19120.2 -15000.1 -38.1147 24301.9
 06 11 2023  04 45  03.9544 19121.1 -15000.0 -38.1131 24302.6
 06 11 2023  04 46  03.9547 19122.3 -14999.9 -38.1112 24303.5
 06 11 2023  04 47  03.9553 19124.0 -14999.7 -38.1084 24304.7
 06 11 2023  04 48  03.9557 19126.0 -14999.6 -38.1053 24306.2
 06 11 2023  04 49  03.9569 19129.0 -14999.4 -38.1006 24308.4
 06 11 2023  04 50  03.9574 19131.7 -14999.2 -38.0963 24310.4
 06 11 2023  04 51  03.9581 19133.5 -14999.0 -38.0932 24311.7
 06 11 2023  04 52  03.9601 19135.5 -14998.7 -38.0899 24313.1
 06 11 2023  04 53  03.9616 19136.5 -14998.5 -38.0880 24313.7
 06 11 2023  04 54  03.9627 19137.4 -14998.2 -38.0862 24314.3
 06 11 2023  04 55  03.9630 19138.5 -14998.1 -38.0843 24315.1
 06 11 2023  04 56  03.9623 19139.4 -14998.0 -38.0828 24315.7
 06 11 2023  04 57  03.9618 19140.1 -14997.9 -38.0816 24316.3
 06 11 2023  04 58  03.9615 19143.2 -14997.9 -38.0772 24318.7
 06 11 2023  04 59  03.9593 19148.5 -14997.9 -38.0694 24322.9
 06 11 2023  05 00  03.9573 19154.3 -14997.8 -38.0608 24327.4
 06 11 2023  05 01  03.9583 19157.4 -14997.7 -38.0561 24329.7
 06 11 2023  05 02  03.9585 19156.4 -14997.5 -38.0573 24328.9
 06 11 2023  05 03  03.9576 19153.4 -14997.6 -38.0617 24326.5
 06 11 2023  05 04  03.9564 19149.1 -14997.8 -38.0683 24323.2
 06 11 2023  05 05  03.9540 19146.0 -14998.0 -38.0733 24321.0
 06 11 2023  05 06  03.9506 19144.6 -14998.4 -38.0759 24320.1
 06 11 2023  05 07  03.9486 19147.1 -14998.7 -38.0730 24322.3
 06 11 2023  05 08  03.9462 19149.6 -14998.9 -38.0696 24324.4
 06 11 2023  05 09  03.9442 19150.0 -14999.0 -38.0694 24324.7
 06 11 2023  05 10  03.9426 19149.4 -14999.3 -38.0708 24324.4
 06 11 2023  05 11  03.9413 19148.1 -14999.5 -38.0731 24323.5
 06 11 2023  05 12  03.9395 19145.5 -14999.8 -38.0774 24321.7
 06 11 2023  05 13  03.9373 19141.3 -15000.2 -38.0841 24318.6
 06 11 2023  05 14  03.9362 19135.7 -15000.7 -38.0932 24314.5
 06 11 2023  05 15  03.9342 19128.3 -15001.2 -38.1050 24309.0
 06 11 2023  05 16  03.9308 19122.6 -15001.8 -38.1144 24304.9
 06 11 2023  05 17  03.9280 19120.0 -15002.4 -38.1193 24303.2
 06 11 2023  05 18  03.9279 19121.2 -15002.9 -38.1184 24304.4
 06 11 2023  05 19  03.9296 19124.8 -15003.0 -38.1133 24307.4
