CHILLAN EMBRACE-14 <274> 1 Min. Reported data

 DD MM YYYY  HH MM   H(mV)   D(mV)   Z(mV)  T1(mV)  T2(mV)

 01 10 2023  00 00  -891.401 -727.792 077.182 176.712 325.434
 01 10 2023  00 01  -891.808 -727.599 076.810 176.741 325.112
 01 10 2023  00 02  -891.370 -727.288 076.392 176.745 324.807
 01 10 2023  00 03  -890.939 -727.084 076.100 176.758 324.502
 01 10 2023  00 04  -889.450 -727.027 075.930 176.759 324.156
 01 10 2023  00 05  -889.077 -727.074 075.699 176.730 323.844
 01 10 2023  00 06  -888.475 -727.178 075.470 176.771 323.530
 01 10 2023  00 07  -887.468 -727.387 075.263 176.783 323.206
 01 10 2023  00 08  -886.190 -727.690 075.134 176.785 322.877
 01 10 2023  00 09  -883.459 -728.129 074.959 176.787 322.565
 01 10 2023  00 10  -882.102 -728.943 074.886 176.798 322.189
 01 10 2023  00 11  -880.772 -729.644 074.739 176.799 321.913
 01 10 2023  00 12  -879.561 -730.627 074.523 176.800 321.597
 01 10 2023  00 13  -879.446 -732.298 074.219 176.815 321.262
 01 10 2023  00 14  -876.373 -733.718 073.816 176.818 320.943
 01 10 2023  00 15  -874.503 -735.469 073.572 176.827 320.626
 01 10 2023  00 16  -874.450 -738.370 073.091 176.824 320.309
 01 10 2023  00 17  -873.522 -740.118 072.513 176.830 320.003
 01 10 2023  00 18  -873.439 -742.209 071.770 176.849 319.644
 01 10 2023  00 19  -872.772 -743.211 071.238 176.856 319.317
 01 10 2023  00 20  -872.379 -744.325 070.557 176.859 319.000
 01 10 2023  00 21  -871.943 -745.278 070.053 176.868 318.672
 01 10 2023  00 22  -870.668 -746.927 069.603 176.881 318.391
 01 10 2023  00 23  -857.084 -747.905 069.208 176.882 318.049
 01 10 2023  00 24  -857.293 -749.864 069.570 176.887 317.767
 01 10 2023  00 25  -854.117 -751.110 069.365 176.884 317.473
 01 10 2023  00 26  -851.870 -752.199 069.136 176.896 317.117
 01 10 2023  00 27  -852.410 -753.608 068.969 176.901 316.799
 01 10 2023  00 28  -851.537 -754.859 068.699 176.909 316.499
 01 10 2023  00 29  -849.636 -755.555 068.514 176.925 316.208
 01 10 2023  00 30  -847.196 -755.330 068.343 176.920 315.882
 01 10 2023  00 31  -844.980 -754.506 068.445 176.933 315.527
 01 10 2023  00 32  -843.365 -753.464 068.688 176.939 315.245
 01 10 2023  00 33  -842.491 -752.635 068.932 176.945 314.994
 01 10 2023  00 34  -842.546 -751.822 069.222 176.955 314.642
 01 10 2023  00 35  -843.382 -750.824 069.504 176.921 314.376
 01 10 2023  00 36  -844.186 -749.418 069.855 176.965 314.085
 01 10 2023  00 37  -845.214 -747.899 070.275 176.970 313.790
 01 10 2023  00 38  -846.028 -746.543 070.733 176.984 313.453
 01 10 2023  00 39  -846.995 -745.718 071.113 176.984 313.141
 01 10 2023  00 40  -845.419 -746.107 071.706 176.945 312.859
 01 10 2023  00 41  -846.808 -746.232 072.142 176.996 312.554
 01 10 2023  00 42  -847.448 -745.882 072.483 177.001 312.292
 01 10 2023  00 43  -848.603 -746.941 072.790 177.014 311.954
 01 10 2023  00 44  -849.123 -747.152 073.007 177.027 311.681
 01 10 2023  00 45  -846.474 -747.558 073.174 176.977 311.407
 01 10 2023  00 46  -840.653 -746.368 073.785 177.021 311.080
 01 10 2023  00 47  -838.406 -746.553 074.416 177.035 310.765
 01 10 2023  00 48  -836.874 -748.297 074.938 177.045 310.466
 01 10 2023  00 49  -834.200 -748.161 075.267 177.049 310.153
 01 10 2023  00 50  -834.066 -749.298 075.686 177.022 309.873
 01 10 2023  00 51  -835.480 -751.664 075.879 177.060 309.561
 01 10 2023  00 52  -835.096 -754.109 075.709 177.068 309.284
 01 10 2023  00 53  -832.833 -754.899 075.558 177.070 308.969
 01 10 2023  00 54  -830.062 -755.882 075.589 177.075 308.674
 01 10 2023  00 55  -828.716 -757.394 075.477 177.083 308.339
 01 10 2023  00 56  -826.605 -758.173 075.480 177.091 308.018
 01 10 2023  00 57  -825.169 -759.140 075.437 177.102 307.777
 01 10 2023  00 58  -822.671 -759.578 075.423 177.101 307.488
 01 10 2023  00 59  -819.078 -759.849 075.578 177.119 307.200
 01 10 2023  01 00  -817.264 -760.498 075.792 177.110 306.847
 01 10 2023  01 01  -814.723 -760.547 075.967 177.110 306.583
 01 10 2023  01 02  -813.829 -761.136 076.078 177.131 306.277
 01 10 2023  01 03  -812.843 -761.086 076.285 177.152 305.985
 01 10 2023  01 04  -812.621 -761.198 076.415 177.138 305.655
 01 10 2023  01 05  -813.189 -761.180 076.470 177.086 305.372
 01 10 2023  01 06  -813.341 -761.205 076.537 177.161 305.094
 01 10 2023  01 07  -813.772 -761.052 076.604 177.164 304.797
 01 10 2023  01 08  -813.797 -760.843 076.723 177.175 304.495
 01 10 2023  01 09  -814.104 -760.189 076.879 177.179 304.177
 01 10 2023  01 10  -814.091 -759.447 077.053 177.166 303.887
 01 10 2023  01 11  -813.936 -758.847 077.302 177.175 303.605
 01 10 2023  01 12  -814.327 -758.418 077.535 177.202 303.327
 01 10 2023  01 13  -815.123 -757.894 077.728 177.205 303.020
 01 10 2023  01 14  -815.623 -757.240 077.918 177.216 302.696
 01 10 2023  01 15  -816.063 -756.355 078.140 177.226 302.431
 01 10 2023  01 16  -817.170 -755.907 078.439 177.223 302.102
 01 10 2023  01 17  -818.098 -755.707 078.651 177.239 301.827
 01 10 2023  01 18  -819.027 -755.672 078.826 177.245 301.515
 01 10 2023  01 19  -819.956 -755.522 079.004 177.253 301.227
 01 10 2023  01 20  -821.267 -755.555 079.060 177.233 300.912
 01 10 2023  01 21  -822.389 -755.534 079.104 177.262 300.641
 01 10 2023  01 22  -822.817 -755.271 079.126 177.283 300.323
 01 10 2023  01 23  -823.156 -754.980 079.236 177.291 300.030
 01 10 2023  01 24  -823.332 -754.927 079.343 177.294 299.729
 01 10 2023  01 25  -823.182 -755.238 079.389 177.272 299.420
 01 10 2023  01 26  -822.766 -755.455 079.411 177.293 299.114
 01 10 2023  01 27  -821.955 -755.631 079.437 177.306 298.823
 01 10 2023  01 28  -820.913 -755.350 079.486 177.307 298.546
 01 10 2023  01 29  -819.747 -754.991 079.491 177.314 298.226
 01 10 2023  01 30  -818.433 -754.770 079.569 177.294 297.944
 01 10 2023  01 31  -817.210 -754.572 079.689 177.337 297.644
 01 10 2023  01 32  -816.213 -754.255 079.774 177.340 297.318
 01 10 2023  01 33  -815.496 -753.912 079.905 177.344 297.023
 01 10 2023  01 34  -815.078 -753.713 080.020 177.352 296.722
 01 10 2023  01 35  -814.526 -753.456 080.126 177.362 296.443
 01 10 2023  01 36  -813.992 -753.214 080.232 177.367 296.126
 01 10 2023  01 37  -813.828 -753.121 080.292 177.376 295.797
 01 10 2023  01 38  -813.410 -753.100 080.319 177.375 295.492
 01 10 2023  01 39  -812.647 -753.038 080.339 177.396 295.185
 01 10 2023  01 40  -812.031 -752.957 080.408 177.381 294.856
 01 10 2023  01 41  -811.760 -752.927 080.478 177.412 294.569
 01 10 2023  01 42  -811.666 -752.863 080.504 177.414 294.251
 01 10 2023  01 43  -812.278 -752.860 080.515 177.427 293.991
 01 10 2023  01 44  -812.671 -752.745 080.512 177.430 293.650
 01 10 2023  01 45  -812.720 -752.513 080.526 177.428 293.397
 01 10 2023  01 46  -811.972 -752.155 080.565 177.447 293.083
 01 10 2023  01 47  -811.566 -751.947 080.626 177.457 292.753
 01 10 2023  01 48  -810.840 -751.660 080.663 177.462 292.468
 01 10 2023  01 49  -810.070 -751.528 080.767 177.465 292.157
 01 10 2023  01 50  -809.337 -751.302 080.806 177.424 291.854
 01 10 2023  01 51  -808.958 -751.104 080.946 177.488 291.544
 01 10 2023  01 52  -809.299 -751.212 080.984 177.498 291.232
 01 10 2023  01 53  -810.008 -751.341 080.861 177.499 290.951
 01 10 2023  01 54  -810.543 -751.427 080.834 177.509 290.619
 01 10 2023  01 55  -810.854 -751.531 080.790 177.492 290.300
 01 10 2023  01 56  -810.740 -751.379 080.797 177.515 290.015
 01 10 2023  01 57  -810.817 -751.201 080.845 177.529 289.741
 01 10 2023  01 58  -811.074 -751.094 080.900 177.542 289.414
 01 10 2023  01 59  -811.159 -751.039 080.966 177.546 289.119
 01 10 2023  02 00  -811.199 -751.148 081.017 177.545 288.816
 01 10 2023  02 01  -811.148 -751.436 081.070 177.557 288.504
 01 10 2023  02 02  -810.640 -751.575 081.127 177.565 288.246
 01 10 2023  02 03  -810.136 -751.858 081.227 177.576 287.945
 01 10 2023  02 04  -809.370 -752.016 081.288 177.581 287.636
 01 10 2023  02 05  -808.430 -752.237 081.311 177.572 287.345
 01 10 2023  02 06  -807.406 -752.450 081.362 177.603 287.034
 01 10 2023  02 07  -806.469 -752.596 081.378 177.604 286.748
 01 10 2023  02 08  -805.337 -752.563 081.428 177.626 286.446
 01 10 2023  02 09  -804.330 -752.468 081.462 177.625 286.127
 01 10 2023  02 10  -803.108 -752.469 081.496 177.635 285.821
 01 10 2023  02 11  -802.204 -752.725 081.518 177.643 285.561
 01 10 2023  02 12  -801.312 -752.846 081.487 177.651 285.277
 01 10 2023  02 13  -800.534 -752.851 081.500 177.651 284.980
 01 10 2023  02 14  -799.826 -752.898 081.520 177.662 284.655
 01 10 2023  02 15  -799.276 -752.859 081.518 177.664 284.378
 01 10 2023  02 16  -798.752 -752.851 081.647 177.675 284.060
 01 10 2023  02 17  -798.520 -752.901 081.716 177.686 283.807
 01 10 2023  02 18  -798.088 -752.867 081.717 177.691 283.508
 01 10 2023  02 19  -797.271 -752.771 081.701 177.697 283.192
 01 10 2023  02 20  -797.017 -752.835 081.723 177.664 282.864
 01 10 2023  02 21  -796.533 -752.616 081.771 177.712 282.612
 01 10 2023  02 22  -796.548 -752.501 081.833 177.723 282.353
 01 10 2023  02 23  -796.982 -752.518 081.842 177.726 282.028
 01 10 2023  02 24  -797.111 -752.491 081.879 177.734 281.709
 01 10 2023  02 25  -797.059 -752.393 081.828 177.736 281.457
 01 10 2023  02 26  -797.253 -752.389 081.803 177.738 281.163
 01 10 2023  02 27  -797.587 -752.460 081.770 177.755 280.850
 01 10 2023  02 28  -798.044 -752.694 081.719 177.752 280.590
 01 10 2023  02 29  -798.254 -752.906 081.590 177.763 280.299
 01 10 2023  02 30  -798.557 -753.100 081.458 177.722 279.967
 01 10 2023  02 31  -798.804 -753.143 081.369 177.777 279.711
 01 10 2023  02 32  -798.571 -753.093 081.319 177.774 279.451
 01 10 2023  02 33  -798.084 -753.128 081.268 177.781 279.121
 01 10 2023  02 34  -797.380 -753.071 081.229 177.784 278.819
 01 10 2023  02 35  -796.841 -752.947 081.094 177.766 278.523
 01 10 2023  02 36  -796.302 -752.858 081.068 177.792 278.232
 01 10 2023  02 37  -795.906 -752.747 080.963 177.799 277.982
 01 10 2023  02 38  -795.531 -752.825 080.974 177.806 277.683
 01 10 2023  02 39  -795.229 -752.763 080.931 177.820 277.409
 01 10 2023  02 40  -795.050 -752.747 080.868 177.763 277.091
 01 10 2023  02 41  -795.124 -752.764 080.815 177.814 276.825
 01 10 2023  02 42  -795.368 -752.691 080.729 177.822 276.609
 01 10 2023  02 43  -795.463 -752.762 080.628 177.832 276.296
 01 10 2023  02 44  -795.423 -752.668 080.598 177.837 275.987
 01 10 2023  02 45  -795.376 -752.723 080.456 177.836 275.682
 01 10 2023  02 46  -795.499 -752.849 080.386 177.856 275.368
 01 10 2023  02 47  -795.684 -753.086 080.298 177.855 275.139
 01 10 2023  02 48  -795.695 -753.196 080.173 177.866 274.869
 01 10 2023  02 49  -795.791 -753.434 080.084 177.876 274.621
 01 10 2023  02 50  -796.075 -753.785 079.959 177.857 274.350
 01 10 2023  02 51  -796.520 -753.937 079.903 177.887 274.027
 01 10 2023  02 52  -797.055 -754.131 079.749 177.897 273.740
 01 10 2023  02 53  -797.407 -754.293 079.631 177.915 273.495
 01 10 2023  02 54  -797.653 -754.296 079.502 177.906 273.236
 01 10 2023  02 55  -797.817 -754.408 079.317 177.895 272.939
 01 10 2023  02 56  -798.592 -754.755 079.262 177.923 272.677
 01 10 2023  02 57  -799.282 -755.051 079.092 177.931 272.416
 01 10 2023  02 58  -799.629 -755.055 078.878 177.931 272.105
 01 10 2023  02 59  -801.194 -755.348 078.796 177.939 271.818
 01 10 2023  03 00  -801.988 -755.374 078.534 177.930 271.589
 01 10 2023  03 01  -802.813 -755.747 078.375 177.954 271.300
 01 10 2023  03 02  -802.726 -756.038 078.197 177.951 271.083
 01 10 2023  03 03  -802.677 -756.628 077.994 177.962 270.775
 01 10 2023  03 04  -802.546 -757.601 077.827 177.977 270.505
 01 10 2023  03 05  -801.489 -758.138 077.626 177.972 270.242
 01 10 2023  03 06  -800.706 -758.714 077.607 177.986 269.952
 01 10 2023  03 07  -799.956 -759.594 077.384 178.002 269.647
 01 10 2023  03 08  -799.040 -760.157 077.253 178.012 269.462
 01 10 2023  03 09  -797.994 -760.520 077.112 178.010 269.159
 01 10 2023  03 10  -797.453 -760.743 077.009 177.981 268.891
 01 10 2023  03 11  -797.069 -760.879 076.927 178.024 268.682
 01 10 2023  03 12  -796.297 -760.987 076.870 178.038 268.416
 01 10 2023  03 13  -795.668 -761.018 076.878 178.047 268.122
 01 10 2023  03 14  -794.679 -761.054 076.841 178.043 267.874
 01 10 2023  03 15  -794.415 -761.060 076.879 178.012 267.624
 01 10 2023  03 16  -793.101 -761.257 076.795 178.058 267.395
 01 10 2023  03 17  -792.557 -761.286 076.932 178.066 267.107
 01 10 2023  03 18  -791.959 -761.298 076.881 178.080 266.851
 01 10 2023  03 19  -791.905 -761.482 076.938 178.072 266.593
 01 10 2023  03 20  -791.776 -761.309 076.950 178.051 266.359
 01 10 2023  03 21  -791.756 -761.476 077.000 178.101 266.104
 01 10 2023  03 22  -791.904 -761.532 077.041 178.104 265.843
 01 10 2023  03 23  -791.465 -761.280 076.964 178.107 265.564
 01 10 2023  03 24  -791.286 -761.059 076.985 178.116 265.353
 01 10 2023  03 25  -790.240 -760.783 077.053 178.119 265.097
 01 10 2023  03 26  -789.556 -760.582 077.262 178.126 264.851
 01 10 2023  03 27  -788.121 -760.162 077.379 178.139 264.640
 01 10 2023  03 28  -787.412 -760.074 077.513 178.138 264.347
 01 10 2023  03 29  -787.359 -759.976 077.716 178.143 264.106
 01 10 2023  03 30  -787.617 -760.060 077.756 178.145 263.888
 01 10 2023  03 31  -787.875 -760.124 077.861 178.162 263.646
 01 10 2023  03 32  -788.120 -760.183 077.919 178.163 263.358
 01 10 2023  03 33  -787.477 -759.961 077.988 178.180 263.161
 01 10 2023  03 34  -786.977 -759.871 078.085 178.181 262.905
 01 10 2023  03 35  -786.829 -759.830 078.162 178.161 262.684
 01 10 2023  03 36  -786.557 -759.806 078.254 178.194 262.419
 01 10 2023  03 37  -785.904 -759.315 078.407 178.202 262.138
 01 10 2023  03 38  -784.964 -758.878 078.559 178.206 261.924
 01 10 2023  03 39  -784.269 -758.723 078.699 178.216 261.711
 01 10 2023  03 40  -783.283 -758.165 078.863 178.226 261.442
 01 10 2023  03 41  -782.879 -757.960 079.064 178.226 261.221
 01 10 2023  03 42  -782.255 -757.789 079.224 178.238 260.984
 01 10 2023  03 43  -782.230 -757.848 079.263 178.243 260.741
 01 10 2023  03 44  -781.732 -757.533 079.324 178.252 260.480
 01 10 2023  03 45  -781.505 -757.313 079.478 178.264 260.265
 01 10 2023  03 46  -781.404 -757.208 079.585 178.251 260.043
 01 10 2023  03 47  -781.849 -757.398 079.659 178.268 259.810
 01 10 2023  03 48  -782.564 -757.481 079.652 178.267 259.537
 01 10 2023  03 49  -783.159 -757.520 079.616 178.283 259.330
 01 10 2023  03 50  -783.567 -757.486 079.579 178.250 259.058
 01 10 2023  03 51  -783.389 -757.342 079.567 178.288 258.830
 01 10 2023  03 52  -782.466 -757.357 079.524 178.311 258.621
 01 10 2023  03 53  -781.677 -757.319 079.743 178.324 258.369
 01 10 2023  03 54  -781.139 -757.374 079.813 178.308 258.145
 01 10 2023  03 55  -779.694 -757.401 079.872 178.277 257.915
 01 10 2023  03 56  -778.461 -757.216 080.065 178.324 257.677
 01 10 2023  03 57  -777.549 -757.159 080.197 178.334 257.425
 01 10 2023  03 58  -776.483 -757.061 080.388 178.345 257.215
 01 10 2023  03 59  -775.945 -757.082 080.531 178.354 257.022
 01 10 2023  04 00  -775.742 -757.273 080.589 178.334 256.778
 01 10 2023  04 01  -775.122 -757.496 080.609 178.374 256.505
 01 10 2023  04 02  -774.630 -757.854 080.641 178.378 256.305
 01 10 2023  04 03  -774.179 -758.147 080.728 178.386 256.034
 01 10 2023  04 04  -773.862 -758.380 080.621 178.384 255.791
 01 10 2023  04 05  -773.464 -758.522 080.619 178.368 255.578
 01 10 2023  04 06  -772.987 -758.686 080.603 178.402 255.365
 01 10 2023  04 07  -772.773 -759.020 080.617 178.411 255.123
 01 10 2023  04 08  -772.420 -759.067 080.535 178.417 254.870
 01 10 2023  04 09  -772.101 -759.103 080.663 178.423 254.672
 01 10 2023  04 10  -771.856 -759.305 080.661 178.415 254.455
 01 10 2023  04 11  -771.774 -759.401 080.692 178.425 254.192
 01 10 2023  04 12  -771.764 -759.515 080.650 178.448 253.948
 01 10 2023  04 13  -771.655 -759.631 080.652 178.442 253.767
 01 10 2023  04 14  -771.491 -759.814 080.571 178.463 253.553
 01 10 2023  04 15  -771.131 -759.788 080.544 178.454 253.300
 01 10 2023  04 16  -769.976 -758.962 080.724 178.468 253.084
 01 10 2023  04 17  -770.862 -759.290 080.869 178.471 252.853
 01 10 2023  04 18  -771.611 -759.751 080.809 178.488 252.660
 01 10 2023  04 19  -771.942 -760.234 080.710 178.484 252.437
 01 10 2023  04 20  -773.257 -760.822 080.590 178.484 252.217
 01 10 2023  04 21  -773.983 -761.126 080.390 178.502 251.957
 01 10 2023  04 22  -774.717 -761.383 080.190 178.504 251.741
 01 10 2023  04 23  -775.671 -761.568 080.078 178.510 251.522
 01 10 2023  04 24  -776.315 -761.883 079.903 178.523 251.310
 01 10 2023  04 25  -776.183 -761.791 079.749 178.530 251.108
 01 10 2023  04 26  -776.053 -761.244 079.695 178.532 250.867
 01 10 2023  04 27  -775.830 -760.781 079.705 178.537 250.625
 01 10 2023  04 28  -775.883 -760.593 079.737 178.540 250.427
 01 10 2023  04 29  -775.810 -760.342 079.724 178.549 250.229
 01 10 2023  04 30  -776.118 -760.140 079.685 178.457 249.994
 01 10 2023  04 31  -776.375 -760.179 079.675 178.564 249.747
 01 10 2023  04 32  -776.571 -760.301 079.638 178.572 249.528
 01 10 2023  04 33  -777.274 -760.599 079.613 178.574 249.329
 01 10 2023  04 34  -777.987 -760.863 079.567 178.577 249.118
 01 10 2023  04 35  -777.859 -760.818 079.461 178.565 248.900
 01 10 2023  04 36  -777.884 -760.758 079.468 178.598 248.690
 01 10 2023  04 37  -777.419 -760.397 079.460 178.595 248.470
 01 10 2023  04 38  -777.295 -760.029 079.479 178.606 248.225
 01 10 2023  04 39  -776.884 -759.811 079.556 178.616 248.026
 01 10 2023  04 40  -776.680 -759.827 079.553 178.570 247.850
 01 10 2023  04 41  -776.508 -759.929 079.573 178.618 247.598
 01 10 2023  04 42  -776.449 -759.950 079.523 178.639 247.349
 01 10 2023  04 43  -776.070 -759.834 079.468 178.641 247.138
 01 10 2023  04 44  -775.486 -759.773 079.396 178.649 246.913
 01 10 2023  04 45  -775.068 -759.621 079.412 178.609 246.714
 01 10 2023  04 46  -774.062 -759.284 079.422 178.648 246.483
 01 10 2023  04 47  -773.757 -759.456 079.440 178.652 246.283
 01 10 2023  04 48  -773.330 -759.588 079.425 178.660 246.109
 01 10 2023  04 49  -772.968 -759.561 079.381 178.672 245.915
 01 10 2023  04 50  -772.746 -759.373 079.358 178.687 245.684
 01 10 2023  04 51  -772.530 -759.190 079.358 178.685 245.475
 01 10 2023  04 52  -772.435 -758.962 079.378 178.690 245.263
 01 10 2023  04 53  -772.332 -759.022 079.312 178.693 245.059
 01 10 2023  04 54  -772.120 -759.123 079.234 178.697 244.880
 01 10 2023  04 55  -771.752 -759.268 079.165 178.691 244.635
 01 10 2023  04 56  -771.619 -759.165 079.162 178.719 244.409
 01 10 2023  04 57  -771.630 -759.051 079.151 178.718 244.226
 01 10 2023  04 58  -771.838 -759.155 079.139 178.734 244.021
 01 10 2023  04 59  -771.675 -759.332 079.154 178.731 243.766
 01 10 2023  05 00  -771.345 -759.251 079.117 178.724 243.564
 01 10 2023  05 01  -771.052 -758.823 079.165 178.743 243.397
 01 10 2023  05 02  -771.158 -758.846 079.217 178.742 243.175
 01 10 2023  05 03  -771.737 -759.141 079.225 178.760 242.943
 01 10 2023  05 04  -772.475 -759.440 079.167 178.754 242.731
 01 10 2023  05 05  -773.325 -759.673 079.084 178.741 242.515
 01 10 2023  05 06  -773.855 -759.379 079.034 178.759 242.352
 01 10 2023  05 07  -774.630 -759.231 078.977 178.778 242.191
 01 10 2023  05 08  -775.188 -759.241 078.928 178.784 241.964
 01 10 2023  05 09  -775.386 -759.254 078.832 178.786 241.702
 01 10 2023  05 10  -775.486 -759.202 078.796 178.746 241.505
 01 10 2023  05 11  -775.818 -759.458 078.779 178.805 241.300
 01 10 2023  05 12  -776.430 -760.083 078.671 178.812 241.144
 01 10 2023  05 13  -776.963 -760.810 078.477 178.815 240.926
 01 10 2023  05 14  -777.430 -761.261 078.264 178.817 240.727
 01 10 2023  05 15  -777.731 -761.722 078.101 178.784 240.506
 01 10 2023  05 16  -777.824 -761.729 077.899 178.825 240.312
 01 10 2023  05 17  -778.370 -761.500 077.757 178.839 240.134
 01 10 2023  05 18  -779.128 -761.682 077.651 178.839 239.926
 01 10 2023  05 19  -779.818 -762.373 077.547 178.841 239.723
