CHILLAN EMBRACE-14 <275> 1 Min. Reported data

 DD MM YYYY  HH MM   H(mV)   D(mV)   Z(mV)  T1(mV)  T2(mV)

 02 10 2023  00 00  -744.602 -750.340 081.478 180.221 237.975
 02 10 2023  00 01  -744.990 -750.744 081.292 180.246 237.915
 02 10 2023  00 02  -745.335 -750.829 081.073 180.254 237.888
 02 10 2023  00 03  -745.851 -751.089 080.922 180.250 237.817
 02 10 2023  00 04  -746.442 -751.215 080.713 180.260 237.770
 02 10 2023  00 05  -746.991 -751.472 080.543 180.229 237.702
 02 10 2023  00 06  -747.608 -751.715 080.397 180.246 237.637
 02 10 2023  00 07  -748.425 -751.966 080.180 180.250 237.594
 02 10 2023  00 08  -748.970 -752.058 079.972 180.242 237.521
 02 10 2023  00 09  -749.719 -752.152 079.827 180.246 237.509
 02 10 2023  00 10  -750.428 -752.323 079.580 180.229 237.430
 02 10 2023  00 11  -751.167 -752.457 079.385 180.239 237.322
 02 10 2023  00 12  -751.700 -752.450 079.233 180.238 237.281
 02 10 2023  00 13  -752.016 -752.427 079.087 180.238 237.205
 02 10 2023  00 14  -752.235 -752.477 078.853 180.231 237.141
 02 10 2023  00 15  -752.746 -752.604 078.782 180.230 237.074
 02 10 2023  00 16  -753.154 -752.554 078.681 180.242 237.018
 02 10 2023  00 17  -753.520 -752.573 078.599 180.237 236.960
 02 10 2023  00 18  -754.447 -752.698 078.386 180.235 236.895
 02 10 2023  00 19  -754.776 -752.675 078.220 180.218 236.817
 02 10 2023  00 20  -755.038 -752.667 078.032 180.194 236.763
 02 10 2023  00 21  -755.296 -752.710 077.994 180.219 236.738
 02 10 2023  00 22  -755.867 -752.718 077.875 180.216 236.662
 02 10 2023  00 23  -756.079 -752.776 077.732 180.208 236.620
 02 10 2023  00 24  -756.602 -752.795 077.569 180.216 236.514
 02 10 2023  00 25  -757.024 -752.742 077.366 180.124 236.465
 02 10 2023  00 26  -757.191 -752.545 077.268 180.209 236.413
 02 10 2023  00 27  -757.266 -752.472 077.207 180.220 236.353
 02 10 2023  00 28  -757.058 -752.281 077.074 180.211 236.294
 02 10 2023  00 29  -757.640 -752.162 077.019 180.206 236.237
 02 10 2023  00 30  -758.070 -752.286 076.904 180.186 236.196
 02 10 2023  00 31  -758.593 -752.363 076.788 180.199 236.134
 02 10 2023  00 32  -758.975 -752.307 076.727 180.198 236.050
 02 10 2023  00 33  -759.166 -752.576 076.599 180.200 235.977
 02 10 2023  00 34  -759.185 -752.775 076.529 180.201 235.939
 02 10 2023  00 35  -759.731 -752.915 076.315 180.192 235.834
 02 10 2023  00 36  -759.493 -752.829 076.259 180.187 235.784
 02 10 2023  00 37  -759.711 -752.916 076.129 180.189 235.683
 02 10 2023  00 38  -759.782 -752.878 076.033 180.194 235.600
 02 10 2023  00 39  -760.000 -752.691 075.934 180.196 235.560
 02 10 2023  00 40  -760.128 -752.696 075.885 180.149 235.465
 02 10 2023  00 41  -760.220 -752.878 075.826 180.179 235.441
 02 10 2023  00 42  -760.716 -752.933 075.678 180.188 235.363
 02 10 2023  00 43  -761.398 -753.049 075.508 180.173 235.325
 02 10 2023  00 44  -761.337 -753.048 075.337 180.181 235.253
 02 10 2023  00 45  -761.849 -753.152 075.261 180.139 235.156
 02 10 2023  00 46  -762.047 -753.194 075.187 180.168 235.094
 02 10 2023  00 47  -762.435 -753.510 075.021 180.174 235.040
 02 10 2023  00 48  -762.646 -753.863 074.954 180.165 234.955
 02 10 2023  00 49  -763.230 -753.982 074.792 180.175 234.925
 02 10 2023  00 50  -764.145 -754.757 074.631 180.124 234.847
 02 10 2023  00 51  -764.986 -754.871 074.440 180.154 234.779
 02 10 2023  00 52  -765.186 -755.597 074.113 180.162 234.696
 02 10 2023  00 53  -765.824 -756.427 073.830 180.149 234.618
 02 10 2023  00 54  -766.451 -757.336 073.585 180.155 234.506
 02 10 2023  00 55  -767.719 -757.775 073.408 180.155 234.487
 02 10 2023  00 56  -768.694 -758.938 073.049 180.147 234.415
 02 10 2023  00 57  -772.184 -759.478 072.701 180.147 234.385
 02 10 2023  00 58  -772.582 -759.638 072.165 180.152 234.314
 02 10 2023  00 59  -771.876 -759.882 071.924 180.144 234.262
 02 10 2023  01 00  -773.094 -760.625 071.775 180.125 234.191
 02 10 2023  01 01  -774.353 -761.140 071.511 180.134 234.133
 02 10 2023  01 02  -774.719 -760.880 071.232 180.138 234.041
 02 10 2023  01 03  -776.133 -761.198 071.024 180.143 233.990
 02 10 2023  01 04  -777.314 -761.675 070.765 180.129 233.941
 02 10 2023  01 05  -778.412 -762.251 070.597 180.102 233.862
 02 10 2023  01 06  -779.007 -762.450 070.395 180.120 233.795
 02 10 2023  01 07  -778.952 -762.831 070.198 180.123 233.757
 02 10 2023  01 08  -779.701 -763.574 070.061 180.121 233.696
 02 10 2023  01 09  -780.500 -764.018 069.810 180.115 233.675
 02 10 2023  01 10  -780.874 -764.237 069.503 180.109 233.572
 02 10 2023  01 11  -781.246 -764.645 069.259 180.105 233.480
 02 10 2023  01 12  -781.432 -764.571 069.005 180.120 233.411
 02 10 2023  01 13  -782.070 -764.911 068.826 180.107 233.360
 02 10 2023  01 14  -782.390 -765.049 068.633 180.106 233.301
 02 10 2023  01 15  -783.166 -765.592 068.478 180.108 233.241
 02 10 2023  01 16  -783.653 -766.539 068.242 180.100 233.178
 02 10 2023  01 17  -783.563 -766.633 067.981 180.109 233.115
 02 10 2023  01 18  -783.946 -767.196 067.730 180.088 233.063
 02 10 2023  01 19  -783.782 -767.369 067.601 180.097 232.972
 02 10 2023  01 20  -783.863 -767.534 067.419 180.091 232.933
 02 10 2023  01 21  -784.145 -767.294 067.289 180.092 232.860
 02 10 2023  01 22  -784.807 -767.484 067.125 180.092 232.837
 02 10 2023  01 23  -784.844 -767.315 066.995 180.092 232.758
 02 10 2023  01 24  -784.837 -767.346 066.968 180.074 232.692
 02 10 2023  01 25  -784.788 -767.240 066.847 180.082 232.627
 02 10 2023  01 26  -784.799 -767.024 066.837 180.072 232.550
 02 10 2023  01 27  -785.339 -766.892 066.710 180.072 232.484
 02 10 2023  01 28  -785.496 -766.727 066.682 180.073 232.447
 02 10 2023  01 29  -785.785 -766.565 066.682 180.069 232.341
 02 10 2023  01 30  -786.891 -766.486 066.656 180.049 232.292
 02 10 2023  01 31  -788.390 -766.368 066.620 180.064 232.225
 02 10 2023  01 32  -789.520 -766.282 066.586 180.064 232.154
 02 10 2023  01 33  -790.201 -765.827 066.620 180.067 232.060
 02 10 2023  01 34  -791.262 -765.506 066.625 180.076 232.060
 02 10 2023  01 35  -792.087 -765.556 066.619 180.025 232.015
 02 10 2023  01 36  -793.200 -765.711 066.627 180.048 231.915
 02 10 2023  01 37  -794.541 -765.747 066.615 180.053 231.892
 02 10 2023  01 38  -795.501 -765.474 066.552 180.055 231.779
 02 10 2023  01 39  -796.774 -766.068 066.612 180.055 231.726
 02 10 2023  01 40  -798.411 -767.248 066.418 180.025 231.661
 02 10 2023  01 41  -798.351 -766.886 066.271 180.042 231.603
 02 10 2023  01 42  -799.834 -767.104 066.269 180.036 231.526
 02 10 2023  01 43  -799.801 -766.491 066.180 180.036 231.455
 02 10 2023  01 44  -800.885 -766.724 066.243 180.035 231.399
 02 10 2023  01 45  -801.884 -767.198 066.091 179.967 231.342
 02 10 2023  01 46  -802.325 -767.453 065.983 180.033 231.279
 02 10 2023  01 47  -803.423 -768.107 065.899 180.022 231.218
 02 10 2023  01 48  -803.714 -768.404 065.722 180.026 231.177
 02 10 2023  01 49  -804.024 -768.613 065.663 180.019 231.124
 02 10 2023  01 50  -804.558 -768.789 065.502 179.987 231.023
 02 10 2023  01 51  -805.290 -768.586 065.410 180.020 230.969
 02 10 2023  01 52  -806.149 -768.390 065.366 180.006 230.918
 02 10 2023  01 53  -806.964 -768.142 065.359 180.011 230.875
 02 10 2023  01 54  -807.637 -768.129 065.342 180.008 230.839
 02 10 2023  01 55  -808.451 -768.261 065.281 179.972 230.749
 02 10 2023  01 56  -808.902 -768.304 065.210 180.010 230.699
 02 10 2023  01 57  -809.205 -768.165 065.182 180.004 230.615
 02 10 2023  01 58  -809.545 -768.140 065.168 180.001 230.593
 02 10 2023  01 59  -809.286 -767.949 065.144 179.997 230.492
 02 10 2023  02 00  -809.289 -768.205 065.155 179.945 230.434
 02 10 2023  02 01  -809.181 -768.460 065.132 179.983 230.391
 02 10 2023  02 02  -809.285 -768.669 065.099 179.995 230.339
 02 10 2023  02 03  -809.502 -768.897 065.044 179.983 230.285
 02 10 2023  02 04  -809.718 -769.189 064.937 179.989 230.224
 02 10 2023  02 05  -810.193 -769.315 064.864 179.956 230.114
 02 10 2023  02 06  -809.766 -769.259 064.755 179.975 230.111
 02 10 2023  02 07  -809.481 -769.264 064.688 179.977 230.064
 02 10 2023  02 08  -809.009 -768.933 064.654 179.971 229.972
 02 10 2023  02 09  -808.625 -768.412 064.743 179.966 229.957
 02 10 2023  02 10  -808.337 -768.114 064.794 179.942 229.897
 02 10 2023  02 11  -808.101 -767.553 064.900 179.960 229.800
 02 10 2023  02 12  -807.696 -767.234 065.008 179.960 229.768
 02 10 2023  02 13  -807.144 -767.185 065.121 179.968 229.706
 02 10 2023  02 14  -807.012 -767.444 065.154 179.964 229.641
 02 10 2023  02 15  -806.560 -767.744 065.153 179.937 229.600
 02 10 2023  02 16  -806.418 -767.813 065.135 179.954 229.514
 02 10 2023  02 17  -805.728 -767.619 065.141 179.953 229.460
 02 10 2023  02 18  -805.587 -767.422 065.190 179.945 229.410
 02 10 2023  02 19  -805.380 -767.272 065.222 179.952 229.329
 02 10 2023  02 20  -805.094 -767.160 065.242 179.915 229.289
 02 10 2023  02 21  -804.852 -766.764 065.335 179.939 229.225
 02 10 2023  02 22  -804.613 -766.933 065.379 179.932 229.180
 02 10 2023  02 23  -804.813 -767.059 065.444 179.935 229.108
 02 10 2023  02 24  -805.208 -767.193 065.411 179.930 229.057
 02 10 2023  02 25  -804.886 -766.936 065.316 179.893 228.996
 02 10 2023  02 26  -804.507 -766.852 065.327 179.921 228.966
 02 10 2023  02 27  -804.486 -767.033 065.332 179.925 228.884
 02 10 2023  02 28  -803.849 -766.797 065.387 179.924 228.787
 02 10 2023  02 29  -803.933 -767.060 065.419 179.914 228.760
 02 10 2023  02 30  -804.064 -767.178 065.347 179.877 228.707
 02 10 2023  02 31  -804.312 -767.211 065.412 179.908 228.635
 02 10 2023  02 32  -803.516 -767.030 065.451 179.907 228.606
 02 10 2023  02 33  -801.289 -765.447 065.742 179.903 228.537
 02 10 2023  02 34  -802.180 -766.356 065.988 179.904 228.496
 02 10 2023  02 35  -802.070 -765.657 066.194 179.847 228.436
 02 10 2023  02 36  -802.222 -765.996 066.258 179.897 228.379
 02 10 2023  02 37  -802.645 -766.083 066.450 179.889 228.292
 02 10 2023  02 38  -802.898 -766.296 066.537 179.889 228.229
 02 10 2023  02 39  -802.890 -766.336 066.641 179.890 228.208
 02 10 2023  02 40  -803.111 -766.732 066.605 179.836 228.111
 02 10 2023  02 41  -803.035 -767.082 066.664 179.885 228.060
 02 10 2023  02 42  -802.984 -767.156 066.756 179.888 227.982
 02 10 2023  02 43  -802.802 -767.065 066.814 179.878 227.964
 02 10 2023  02 44  -802.523 -767.011 066.934 179.881 227.875
 02 10 2023  02 45  -801.369 -766.407 067.140 179.863 227.796
 02 10 2023  02 46  -800.344 -766.306 067.382 179.858 227.777
 02 10 2023  02 47  -800.478 -766.198 067.669 179.874 227.689
 02 10 2023  02 48  -798.590 -766.135 067.843 179.868 227.663
 02 10 2023  02 49  -797.033 -765.835 068.286 179.866 227.615
 02 10 2023  02 50  -792.996 -764.644 068.570 179.852 227.533
 02 10 2023  02 51  -791.040 -764.015 069.341 179.858 227.462
 02 10 2023  02 52  -788.613 -763.620 069.819 179.866 227.434
 02 10 2023  02 53  -787.096 -765.149 070.230 179.851 227.349
 02 10 2023  02 54  -784.691 -765.420 070.513 179.851 227.280
 02 10 2023  02 55  -782.563 -766.965 070.772 179.839 227.229
 02 10 2023  02 56  -780.275 -767.938 070.851 179.838 227.193
 02 10 2023  02 57  -778.776 -769.206 070.968 179.845 227.129
 02 10 2023  02 58  -777.278 -770.440 071.078 179.833 227.089
 02 10 2023  02 59  -774.846 -771.750 071.067 179.844 227.037
 02 10 2023  03 00  -772.704 -773.240 070.980 179.812 226.926
 02 10 2023  03 01  -768.177 -773.419 071.017 179.826 226.829
 02 10 2023  03 02  -764.274 -774.380 071.175 179.829 226.790
 02 10 2023  03 03  -760.468 -773.890 071.413 179.817 226.740
 02 10 2023  03 04  -757.387 -774.019 071.792 179.828 226.726
 02 10 2023  03 05  -754.734 -774.118 072.085 179.810 226.667
 02 10 2023  03 06  -751.741 -773.869 072.397 179.812 226.598
 02 10 2023  03 07  -749.749 -773.750 072.698 179.815 226.514
 02 10 2023  03 08  -748.074 -773.285 072.991 179.808 226.472
 02 10 2023  03 09  -746.622 -772.336 073.406 179.805 226.414
 02 10 2023  03 10  -745.403 -771.456 073.728 179.747 226.351
 02 10 2023  03 11  -744.260 -770.349 074.301 179.796 226.291
 02 10 2023  03 12  -742.612 -769.554 074.900 179.798 226.232
 02 10 2023  03 13  -740.863 -769.457 075.493 179.793 226.156
 02 10 2023  03 14  -739.380 -769.100 076.050 179.799 226.111
 02 10 2023  03 15  -738.322 -769.220 076.599 179.790 226.042
 02 10 2023  03 16  -736.474 -768.966 077.108 179.782 225.962
 02 10 2023  03 17  -736.869 -769.285 077.636 179.782 225.907
 02 10 2023  03 18  -736.323 -769.512 077.897 179.777 225.877
 02 10 2023  03 19  -736.451 -769.731 078.178 179.777 225.811
 02 10 2023  03 20  -736.992 -769.922 078.348 179.781 225.750
 02 10 2023  03 21  -737.653 -770.324 078.626 179.765 225.688
 02 10 2023  03 22  -738.211 -770.913 078.692 179.770 225.606
 02 10 2023  03 23  -738.556 -771.014 078.746 179.781 225.545
 02 10 2023  03 24  -739.843 -771.250 078.855 179.775 225.470
 02 10 2023  03 25  -741.014 -771.263 078.913 179.727 225.449
 02 10 2023  03 26  -740.114 -770.951 079.097 179.748 225.367
 02 10 2023  03 27  -742.191 -771.240 079.258 179.757 225.332
 02 10 2023  03 28  -742.192 -771.481 079.205 179.760 225.243
 02 10 2023  03 29  -742.090 -772.130 079.201 179.754 225.251
 02 10 2023  03 30  -742.907 -772.904 079.098 179.744 225.190
 02 10 2023  03 31  -743.740 -773.233 079.054 179.746 225.142
 02 10 2023  03 32  -744.503 -773.315 078.903 179.743 225.064
 02 10 2023  03 33  -745.200 -773.224 078.811 179.741 225.092
 02 10 2023  03 34  -745.715 -773.297 078.784 179.734 225.045
 02 10 2023  03 35  -746.313 -773.134 078.730 179.696 224.984
 02 10 2023  03 36  -747.047 -773.319 078.720 179.737 224.900
 02 10 2023  03 37  -747.759 -773.496 078.687 179.734 224.885
 02 10 2023  03 38  -748.529 -773.721 078.605 179.728 224.802
 02 10 2023  03 39  -749.326 -774.163 078.546 179.725 224.757
 02 10 2023  03 40  -749.903 -774.370 078.372 179.704 224.686
 02 10 2023  03 41  -749.966 -774.537 078.299 179.711 224.669
 02 10 2023  03 42  -750.668 -774.911 078.251 179.712 224.597
 02 10 2023  03 43  -751.611 -775.449 078.073 179.722 224.556
 02 10 2023  03 44  -752.454 -776.021 077.829 179.707 224.517
 02 10 2023  03 45  -753.473 -776.472 077.583 179.705 224.466
 02 10 2023  03 46  -754.597 -776.730 077.353 179.690 224.421
 02 10 2023  03 47  -755.728 -776.819 077.137 179.703 224.341
 02 10 2023  03 48  -756.814 -776.901 076.945 179.693 224.302
 02 10 2023  03 49  -757.753 -776.875 076.730 179.696 224.284
 02 10 2023  03 50  -758.512 -777.101 076.562 179.693 224.225
 02 10 2023  03 51  -759.078 -777.237 076.440 179.691 224.214
 02 10 2023  03 52  -759.323 -777.403 076.329 179.681 224.163
 02 10 2023  03 53  -759.437 -777.669 076.169 179.682 224.127
 02 10 2023  03 54  -759.501 -777.640 076.087 179.679 224.094
 02 10 2023  03 55  -758.941 -777.599 076.026 179.653 223.996
 02 10 2023  03 56  -757.189 -777.694 075.970 179.659 223.930
 02 10 2023  03 57  -755.565 -777.844 075.929 179.679 223.862
 02 10 2023  03 58  -754.178 -778.137 075.907 179.667 223.866
 02 10 2023  03 59  -753.384 -778.488 075.884 179.657 223.820
 02 10 2023  04 00  -752.725 -778.808 075.807 179.658 223.773
 02 10 2023  04 01  -752.115 -778.759 075.762 179.668 223.706
 02 10 2023  04 02  -752.297 -778.558 075.740 179.657 223.633
 02 10 2023  04 03  -753.495 -778.298 075.734 179.652 223.635
 02 10 2023  04 04  -755.034 -777.924 075.653 179.656 223.533
 02 10 2023  04 05  -756.813 -777.544 075.619 179.645 223.493
 02 10 2023  04 06  -758.387 -777.271 075.613 179.645 223.459
 02 10 2023  04 07  -759.971 -777.255 075.518 179.635 223.407
 02 10 2023  04 08  -761.313 -777.212 075.442 179.638 223.375
 02 10 2023  04 09  -761.857 -777.196 075.334 179.637 223.317
 02 10 2023  04 10  -762.545 -777.239 075.277 179.620 223.275
 02 10 2023  04 11  -763.048 -777.256 075.160 179.622 223.250
 02 10 2023  04 12  -763.200 -777.206 075.065 179.631 223.248
 02 10 2023  04 13  -763.308 -777.326 075.010 179.625 223.183
 02 10 2023  04 14  -763.312 -777.508 074.846 179.629 223.122
 02 10 2023  04 15  -763.926 -777.675 074.771 179.600 223.086
 02 10 2023  04 16  -764.441 -777.745 074.660 179.612 223.017
 02 10 2023  04 17  -765.118 -777.923 074.588 179.621 222.975
 02 10 2023  04 18  -765.796 -778.205 074.493 179.611 222.920
 02 10 2023  04 19  -766.298 -778.536 074.381 179.616 222.893
 02 10 2023  04 20  -767.221 -778.853 074.177 179.583 222.887
 02 10 2023  04 21  -768.185 -779.019 074.108 179.597 222.830
 02 10 2023  04 22  -768.716 -779.061 074.016 179.600 222.747
 02 10 2023  04 23  -768.856 -779.014 073.856 179.593 222.709
 02 10 2023  04 24  -769.199 -779.157 073.767 179.599 222.666
 02 10 2023  04 25  -769.814 -779.509 073.613 179.588 222.636
 02 10 2023  04 26  -770.385 -779.594 073.525 179.585 222.627
 02 10 2023  04 27  -770.902 -779.619 073.470 179.580 222.589
 02 10 2023  04 28  -771.141 -779.732 073.362 179.586 222.517
 02 10 2023  04 29  -771.401 -779.857 073.237 179.575 222.502
 02 10 2023  04 30  -771.452 -780.034 073.139 179.558 222.446
 02 10 2023  04 31  -771.870 -780.300 073.044 179.571 222.390
 02 10 2023  04 32  -772.276 -780.511 072.955 179.564 222.344
 02 10 2023  04 33  -772.411 -780.666 072.837 179.562 222.326
 02 10 2023  04 34  -772.322 -780.646 072.714 179.570 222.301
 02 10 2023  04 35  -772.465 -780.776 072.541 179.538 222.252
 02 10 2023  04 36  -772.436 -780.766 072.457 179.556 222.189
 02 10 2023  04 37  -772.782 -780.734 072.379 179.552 222.188
 02 10 2023  04 38  -772.885 -780.775 072.321 179.560 222.138
 02 10 2023  04 39  -772.918 -780.818 072.215 179.550 222.119
 02 10 2023  04 40  -773.416 -781.095 072.124 179.506 222.096
 02 10 2023  04 41  -773.355 -781.130 072.001 179.547 222.014
 02 10 2023  04 42  -772.835 -781.043 071.895 179.544 221.990
 02 10 2023  04 43  -772.727 -781.015 071.860 179.547 221.962
 02 10 2023  04 44  -772.676 -781.049 071.824 179.537 221.897
 02 10 2023  04 45  -772.127 -780.770 071.717 179.531 221.856
 02 10 2023  04 46  -772.258 -780.607 071.733 179.532 221.809
 02 10 2023  04 47  -772.349 -780.504 071.650 179.529 221.764
 02 10 2023  04 48  -772.984 -780.707 071.615 179.535 221.705
 02 10 2023  04 49  -773.400 -780.799 071.493 179.529 221.665
 02 10 2023  04 50  -773.744 -780.753 071.399 179.482 221.651
 02 10 2023  04 51  -774.476 -780.517 071.285 179.525 221.608
 02 10 2023  04 52  -774.942 -780.203 071.182 179.513 221.515
 02 10 2023  04 53  -775.363 -779.839 071.195 179.516 221.521
 02 10 2023  04 54  -775.607 -779.760 071.173 179.505 221.479
 02 10 2023  04 55  -776.135 -779.944 071.142 179.490 221.473
 02 10 2023  04 56  -777.411 -780.364 071.048 179.510 221.406
 02 10 2023  04 57  -777.419 -780.366 070.887 179.502 221.323
 02 10 2023  04 58  -777.812 -780.593 070.788 179.508 221.338
 02 10 2023  04 59  -777.890 -780.578 070.738 179.495 221.284
 02 10 2023  05 00  -777.828 -780.692 070.617 179.461 221.251
 02 10 2023  05 01  -778.039 -780.803 070.533 179.497 221.222
 02 10 2023  05 02  -777.951 -780.654 070.420 179.499 221.204
 02 10 2023  05 03  -777.553 -780.683 070.360 179.495 221.166
 02 10 2023  05 04  -777.329 -780.883 070.343 179.489 221.126
 02 10 2023  05 05  -777.817 -781.135 070.286 179.461 221.048
 02 10 2023  05 06  -778.535 -781.573 070.199 179.475 221.032
 02 10 2023  05 07  -779.032 -781.804 070.018 179.480 220.977
 02 10 2023  05 08  -779.342 -782.038 069.858 179.468 220.950
 02 10 2023  05 09  -779.581 -782.243 069.731 179.477 220.931
 02 10 2023  05 10  -780.232 -782.044 069.623 179.444 220.920
 02 10 2023  05 11  -780.507 -781.877 069.581 179.462 220.874
 02 10 2023  05 12  -780.989 -781.890 069.506 179.468 220.829
 02 10 2023  05 13  -781.563 -782.065 069.419 179.457 220.806
 02 10 2023  05 14  -781.903 -782.255 069.362 179.451 220.778
 02 10 2023  05 15  -782.182 -782.544 069.238 179.416 220.735
 02 10 2023  05 16  -783.058 -782.882 069.133 179.451 220.649
 02 10 2023  05 17  -783.707 -783.289 068.957 179.448 220.625
 02 10 2023  05 18  -784.212 -783.833 068.803 179.448 220.596
 02 10 2023  05 19  -784.801 -784.226 068.630 179.449 220.566
