CHILLAN EMBRACE-14 <275> 1 Min. Reported data

 DD MM YYYY  HH MM   D(Deg)  H(nT)   Z(nT)   I(Deg)   F(nT)

 02 10 2023  00 00  03.9726 19203.3 -14988.1 -37.9718 24360.0
 02 10 2023  00 01  03.9722 19203.2 -14988.1 -37.9721 24359.9
 02 10 2023  00 02  03.9721 19203.1 -14988.2 -37.9724 24359.9
 02 10 2023  00 03  03.9719 19202.9 -14988.2 -37.9727 24359.8
 02 10 2023  00 04  03.9718 19202.7 -14988.3 -37.9731 24359.6
 02 10 2023  00 05  03.9715 19202.5 -14988.4 -37.9735 24359.5
 02 10 2023  00 06  03.9713 19202.3 -14988.4 -37.9739 24359.4
 02 10 2023  00 07  03.9711 19202.0 -14988.5 -37.9744 24359.2
 02 10 2023  00 08  03.9710 19201.8 -14988.5 -37.9748 24359.1
 02 10 2023  00 09  03.9709 19201.5 -14988.6 -37.9753 24358.9
 02 10 2023  00 10  03.9708 19201.2 -14988.6 -37.9758 24358.7
 02 10 2023  00 11  03.9707 19201.0 -14988.7 -37.9763 24358.5
 02 10 2023  00 12  03.9707 19200.8 -14988.7 -37.9766 24358.4
 02 10 2023  00 13  03.9707 19200.7 -14988.8 -37.9769 24358.4
 02 10 2023  00 14  03.9706 19200.6 -14988.8 -37.9771 24358.3
 02 10 2023  00 15  03.9705 19200.4 -14988.9 -37.9774 24358.2
 02 10 2023  00 16  03.9706 19200.3 -14988.9 -37.9777 24358.1
 02 10 2023  00 17  03.9706 19200.1 -14988.9 -37.9779 24358.0
 02 10 2023  00 18  03.9704 19199.8 -14989.0 -37.9785 24357.8
 02 10 2023  00 19  03.9705 19199.7 -14989.0 -37.9788 24357.7
 02 10 2023  00 20  03.9705 19199.6 -14989.1 -37.9790 24357.7
 02 10 2023  00 21  03.9704 19199.5 -14989.1 -37.9791 24357.6
 02 10 2023  00 22  03.9704 19199.3 -14989.1 -37.9795 24357.5
 02 10 2023  00 23  03.9704 19199.2 -14989.2 -37.9797 24357.5
 02 10 2023  00 24  03.9703 19199.0 -14989.2 -37.9801 24357.3
 02 10 2023  00 25  03.9704 19198.9 -14989.3 -37.9804 24357.3
 02 10 2023  00 26  03.9706 19198.8 -14989.3 -37.9805 24357.2
 02 10 2023  00 27  03.9706 19198.8 -14989.3 -37.9806 24357.2
 02 10 2023  00 28  03.9708 19198.9 -14989.4 -37.9806 24357.3
 02 10 2023  00 29  03.9709 19198.7 -14989.4 -37.9809 24357.2
 02 10 2023  00 30  03.9708 19198.5 -14989.4 -37.9812 24357.1
 02 10 2023  00 31  03.9707 19198.3 -14989.4 -37.9815 24356.9
 02 10 2023  00 32  03.9708 19198.2 -14989.5 -37.9817 24356.8
 02 10 2023  00 33  03.9705 19198.1 -14989.5 -37.9819 24356.8
 02 10 2023  00 34  03.9704 19198.1 -14989.5 -37.9819 24356.8
 02 10 2023  00 35  03.9702 19197.9 -14989.6 -37.9823 24356.7
 02 10 2023  00 36  03.9703 19198.0 -14989.6 -37.9822 24356.8
 02 10 2023  00 37  03.9702 19197.9 -14989.6 -37.9824 24356.7
 02 10 2023  00 38  03.9703 19197.9 -14989.7 -37.9825 24356.7
 02 10 2023  00 39  03.9704 19197.8 -14989.7 -37.9827 24356.7
 02 10 2023  00 40  03.9704 19197.8 -14989.7 -37.9828 24356.7
 02 10 2023  00 41  03.9703 19197.8 -14989.7 -37.9828 24356.6
 02 10 2023  00 42  03.9702 19197.6 -14989.8 -37.9832 24356.5
 02 10 2023  00 43  03.9701 19197.3 -14989.8 -37.9836 24356.4
 02 10 2023  00 44  03.9701 19197.4 -14989.9 -37.9837 24356.4
 02 10 2023  00 45  03.9700 19197.2 -14989.9 -37.9840 24356.3
 02 10 2023  00 46  03.9700 19197.1 -14989.9 -37.9841 24356.2
 02 10 2023  00 47  03.9697 19197.0 -14990.0 -37.9844 24356.2
 02 10 2023  00 48  03.9694 19196.9 -14990.0 -37.9846 24356.1
 02 10 2023  00 49  03.9693 19196.7 -14990.0 -37.9849 24356.0
 02 10 2023  00 50  03.9686 19196.4 -14990.1 -37.9855 24355.8
 02 10 2023  00 51  03.9685 19196.1 -14990.1 -37.9860 24355.6
 02 10 2023  00 52  03.9678 19196.0 -14990.2 -37.9863 24355.6
 02 10 2023  00 53  03.9671 19195.8 -14990.3 -37.9868 24355.4
 02 10 2023  00 54  03.9662 19195.5 -14990.4 -37.9873 24355.3
 02 10 2023  00 55  03.9659 19195.1 -14990.4 -37.9880 24355.0
 02 10 2023  00 56  03.9648 19194.7 -14990.5 -37.9887 24354.8
 02 10 2023  00 57  03.9643 19193.5 -14990.6 -37.9907 24353.8
 02 10 2023  00 58  03.9642 19193.4 -14990.8 -37.9912 24353.8
 02 10 2023  00 59  03.9640 19193.6 -14990.9 -37.9910 24354.1
 02 10 2023  01 00  03.9633 19193.2 -14990.9 -37.9917 24353.8
 02 10 2023  01 01  03.9628 19192.7 -14991.0 -37.9924 24353.4
 02 10 2023  01 02  03.9631 19192.6 -14991.1 -37.9928 24353.4
 02 10 2023  01 03  03.9628 19192.1 -14991.1 -37.9936 24353.0
 02 10 2023  01 04  03.9623 19191.7 -14991.2 -37.9944 24352.7
 02 10 2023  01 05  03.9618 19191.3 -14991.2 -37.9950 24352.5
 02 10 2023  01 06  03.9616 19191.1 -14991.3 -37.9954 24352.3
 02 10 2023  01 07  03.9613 19191.1 -14991.4 -37.9955 24352.4
 02 10 2023  01 08  03.9606 19190.8 -14991.4 -37.9960 24352.2
 02 10 2023  01 09  03.9602 19190.5 -14991.5 -37.9965 24352.0
 02 10 2023  01 10  03.9600 19190.4 -14991.6 -37.9969 24352.0
 02 10 2023  01 11  03.9597 19190.3 -14991.6 -37.9972 24351.9
 02 10 2023  01 12  03.9597 19190.2 -14991.7 -37.9974 24351.9
 02 10 2023  01 13  03.9594 19190.0 -14991.8 -37.9979 24351.8
 02 10 2023  01 14  03.9593 19189.9 -14991.8 -37.9981 24351.7
 02 10 2023  01 15  03.9588 19189.6 -14991.9 -37.9986 24351.5
 02 10 2023  01 16  03.9579 19189.4 -14991.9 -37.9990 24351.4
 02 10 2023  01 17  03.9579 19189.5 -14992.0 -37.9991 24351.5
 02 10 2023  01 18  03.9573 19189.3 -14992.1 -37.9994 24351.4
 02 10 2023  01 19  03.9572 19189.4 -14992.1 -37.9994 24351.5
 02 10 2023  01 20  03.9570 19189.4 -14992.2 -37.9995 24351.5
 02 10 2023  01 21  03.9573 19189.2 -14992.2 -37.9998 24351.5
 02 10 2023  01 22  03.9571 19189.0 -14992.2 -38.0002 24351.3
 02 10 2023  01 23  03.9572 19189.0 -14992.3 -38.0003 24351.3
 02 10 2023  01 24  03.9572 19189.0 -14992.3 -38.0003 24351.3
 02 10 2023  01 25  03.9573 19189.0 -14992.3 -38.0003 24351.3
 02 10 2023  01 26  03.9575 19189.0 -14992.3 -38.0003 24351.3
 02 10 2023  01 27  03.9576 19188.8 -14992.4 -38.0007 24351.2
 02 10 2023  01 28  03.9578 19188.8 -14992.4 -38.0008 24351.2
 02 10 2023  01 29  03.9579 19188.7 -14992.4 -38.0009 24351.1
 02 10 2023  01 30  03.9580 19188.3 -14992.4 -38.0015 24350.8
 02 10 2023  01 31  03.9581 19187.7 -14992.4 -38.0023 24350.4
 02 10 2023  01 32  03.9582 19187.3 -14992.4 -38.0029 24350.1
 02 10 2023  01 33  03.9586 19187.1 -14992.4 -38.0032 24349.9
 02 10 2023  01 34  03.9589 19186.7 -14992.4 -38.0038 24349.6
 02 10 2023  01 35  03.9588 19186.4 -14992.4 -38.0042 24349.3
 02 10 2023  01 36  03.9587 19186.0 -14992.4 -38.0048 24349.0
 02 10 2023  01 37  03.9587 19185.5 -14992.4 -38.0055 24348.7
 02 10 2023  01 38  03.9589 19185.2 -14992.4 -38.0060 24348.4
 02 10 2023  01 39  03.9584 19184.8 -14992.4 -38.0066 24348.0
 02 10 2023  01 40  03.9573 19184.2 -14992.5 -38.0076 24347.6
 02 10 2023  01 41  03.9576 19184.2 -14992.5 -38.0076 24347.7
 02 10 2023  01 42  03.9574 19183.7 -14992.5 -38.0084 24347.2
 02 10 2023  01 43  03.9580 19183.7 -14992.5 -38.0084 24347.3
 02 10 2023  01 44  03.9578 19183.3 -14992.5 -38.0090 24346.9
 02 10 2023  01 45  03.9573 19182.9 -14992.5 -38.0095 24346.7
 02 10 2023  01 46  03.9571 19182.8 -14992.6 -38.0098 24346.6
 02 10 2023  01 47  03.9565 19182.4 -14992.6 -38.0104 24346.3
 02 10 2023  01 48  03.9563 19182.3 -14992.7 -38.0107 24346.2
 02 10 2023  01 49  03.9561 19182.2 -14992.7 -38.0109 24346.2
 02 10 2023  01 50  03.9559 19182.0 -14992.7 -38.0112 24346.0
 02 10 2023  01 51  03.9561 19181.7 -14992.7 -38.0117 24345.9
 02 10 2023  01 52  03.9563 19181.4 -14992.8 -38.0121 24345.6
 02 10 2023  01 53  03.9565 19181.1 -14992.8 -38.0126 24345.4
 02 10 2023  01 54  03.9565 19180.9 -14992.8 -38.0129 24345.2
 02 10 2023  01 55  03.9564 19180.6 -14992.8 -38.0134 24345.0
 02 10 2023  01 56  03.9563 19180.4 -14992.8 -38.0136 24344.9
 02 10 2023  01 57  03.9565 19180.3 -14992.8 -38.0138 24344.8
 02 10 2023  01 58  03.9565 19180.2 -14992.8 -38.0140 24344.7
 02 10 2023  01 59  03.9567 19180.3 -14992.8 -38.0139 24344.8
 02 10 2023  02 00  03.9564 19180.3 -14992.8 -38.0139 24344.8
 02 10 2023  02 01  03.9562 19180.3 -14992.8 -38.0138 24344.8
 02 10 2023  02 02  03.9560 19180.3 -14992.8 -38.0139 24344.8
 02 10 2023  02 03  03.9558 19180.2 -14992.9 -38.0140 24344.7
 02 10 2023  02 04  03.9555 19180.1 -14992.9 -38.0142 24344.7
 02 10 2023  02 05  03.9554 19180.0 -14992.9 -38.0145 24344.6
 02 10 2023  02 06  03.9555 19180.1 -14992.9 -38.0143 24344.7
 02 10 2023  02 07  03.9555 19180.2 -14993.0 -38.0142 24344.8
 02 10 2023  02 08  03.9558 19180.4 -14993.0 -38.0140 24344.9
 02 10 2023  02 09  03.9563 19180.5 -14992.9 -38.0138 24345.0
 02 10 2023  02 10  03.9565 19180.6 -14992.9 -38.0136 24345.1
 02 10 2023  02 11  03.9570 19180.7 -14992.9 -38.0134 24345.2
 02 10 2023  02 12  03.9573 19180.9 -14992.9 -38.0131 24345.3
 02 10 2023  02 13  03.9574 19181.1 -14992.8 -38.0128 24345.4
 02 10 2023  02 14  03.9571 19181.1 -14992.8 -38.0127 24345.4
 02 10 2023  02 15  03.9569 19181.3 -14992.8 -38.0125 24345.5
 02 10 2023  02 16  03.9568 19181.3 -14992.8 -38.0124 24345.6
 02 10 2023  02 17  03.9570 19181.6 -14992.8 -38.0120 24345.8
 02 10 2023  02 18  03.9571 19181.6 -14992.8 -38.0119 24345.8
 02 10 2023  02 19  03.9573 19181.7 -14992.8 -38.0118 24345.9
 02 10 2023  02 20  03.9574 19181.8 -14992.8 -38.0117 24345.9
 02 10 2023  02 21  03.9577 19181.9 -14992.8 -38.0115 24346.0
 02 10 2023  02 22  03.9576 19182.0 -14992.8 -38.0113 24346.1
 02 10 2023  02 23  03.9575 19181.9 -14992.7 -38.0114 24346.0
 02 10 2023  02 24  03.9574 19181.8 -14992.7 -38.0116 24345.9
 02 10 2023  02 25  03.9576 19181.9 -14992.8 -38.0115 24346.0
 02 10 2023  02 26  03.9577 19182.0 -14992.8 -38.0113 24346.1
 02 10 2023  02 27  03.9575 19182.0 -14992.8 -38.0113 24346.1
 02 10 2023  02 28  03.9577 19182.2 -14992.8 -38.0109 24346.3
 02 10 2023  02 29  03.9575 19182.2 -14992.7 -38.0110 24346.2
 02 10 2023  02 30  03.9574 19182.2 -14992.8 -38.0111 24346.2
 02 10 2023  02 31  03.9573 19182.1 -14992.7 -38.0112 24346.1
 02 10 2023  02 32  03.9575 19182.4 -14992.7 -38.0107 24346.4
 02 10 2023  02 33  03.9589 19183.2 -14992.6 -38.0094 24346.9
 02 10 2023  02 34  03.9581 19182.8 -14992.6 -38.0098 24346.6
 02 10 2023  02 35  03.9587 19182.9 -14992.5 -38.0096 24346.6
 02 10 2023  02 36  03.9584 19182.8 -14992.5 -38.0096 24346.6
 02 10 2023  02 37  03.9584 19182.7 -14992.4 -38.0097 24346.4
 02 10 2023  02 38  03.9582 19182.6 -14992.4 -38.0098 24346.3
 02 10 2023  02 39  03.9581 19182.6 -14992.4 -38.0098 24346.3
 02 10 2023  02 40  03.9578 19182.5 -14992.4 -38.0099 24346.3
 02 10 2023  02 41  03.9574 19182.5 -14992.4 -38.0098 24346.3
 02 10 2023  02 42  03.9574 19182.5 -14992.4 -38.0098 24346.3
 02 10 2023  02 43  03.9575 19182.6 -14992.3 -38.0096 24346.3
 02 10 2023  02 44  03.9575 19182.7 -14992.3 -38.0094 24346.4
 02 10 2023  02 45  03.9581 19183.1 -14992.2 -38.0087 24346.7
 02 10 2023  02 46  03.9582 19183.5 -14992.2 -38.0081 24346.9
 02 10 2023  02 47  03.9582 19183.4 -14992.1 -38.0080 24346.8
 02 10 2023  02 48  03.9583 19184.1 -14992.0 -38.0069 24347.3
 02 10 2023  02 49  03.9586 19184.7 -14991.9 -38.0059 24347.7
 02 10 2023  02 50  03.9597 19186.1 -14991.8 -38.0036 24348.7
 02 10 2023  02 51  03.9602 19186.8 -14991.6 -38.0022 24349.2
 02 10 2023  02 52  03.9606 19187.7 -14991.5 -38.0007 24349.7
 02 10 2023  02 53  03.9592 19188.2 -14991.3 -37.9997 24350.1
 02 10 2023  02 54  03.9590 19189.1 -14991.3 -37.9983 24350.7
 02 10 2023  02 55  03.9576 19189.8 -14991.2 -37.9971 24351.3
 02 10 2023  02 56  03.9567 19190.6 -14991.2 -37.9959 24351.9
 02 10 2023  02 57  03.9555 19191.2 -14991.1 -37.9950 24352.3
 02 10 2023  02 58  03.9544 19191.7 -14991.1 -37.9942 24352.7
 02 10 2023  02 59  03.9532 19192.6 -14991.1 -37.9929 24353.4
 02 10 2023  03 00  03.9519 19193.3 -14991.1 -37.9919 24354.0
 02 10 2023  03 01  03.9517 19194.9 -14991.1 -37.9895 24355.3
 02 10 2023  03 02  03.9509 19196.3 -14991.1 -37.9874 24356.3
 02 10 2023  03 03  03.9513 19197.7 -14991.0 -37.9853 24357.4
 02 10 2023  03 04  03.9512 19198.8 -14990.9 -37.9835 24358.2
 02 10 2023  03 05  03.9511 19199.7 -14990.8 -37.9820 24358.8
 02 10 2023  03 06  03.9513 19200.8 -14990.7 -37.9803 24359.6
 02 10 2023  03 07  03.9514 19201.5 -14990.6 -37.9791 24360.1
 02 10 2023  03 08  03.9519 19202.1 -14990.5 -37.9781 24360.6
 02 10 2023  03 09  03.9527 19202.6 -14990.4 -37.9771 24360.9
 02 10 2023  03 10  03.9535 19203.0 -14990.3 -37.9763 24361.2
 02 10 2023  03 11  03.9545 19203.4 -14990.2 -37.9754 24361.4
 02 10 2023  03 12  03.9552 19204.0 -14990.0 -37.9743 24361.7
 02 10 2023  03 13  03.9553 19204.7 -14989.8 -37.9731 24362.1
 02 10 2023  03 14  03.9556 19205.2 -14989.7 -37.9720 24362.4
 02 10 2023  03 15  03.9555 19205.6 -14989.5 -37.9711 24362.6
 02 10 2023  03 16  03.9558 19206.2 -14989.4 -37.9699 24363.1
 02 10 2023  03 17  03.9555 19206.1 -14989.2 -37.9698 24362.9
 02 10 2023  03 18  03.9553 19206.3 -14989.1 -37.9694 24363.0
 02 10 2023  03 19  03.9551 19206.2 -14989.0 -37.9693 24362.9
 02 10 2023  03 20  03.9549 19206.0 -14989.0 -37.9695 24362.7
 02 10 2023  03 21  03.9545 19205.8 -14988.9 -37.9697 24362.5
 02 10 2023  03 22  03.9540 19205.6 -14988.9 -37.9700 24362.3
 02 10 2023  03 23  03.9539 19205.5 -14988.9 -37.9701 24362.2
 02 10 2023  03 24  03.9537 19205.0 -14988.8 -37.9707 24361.8
 02 10 2023  03 25  03.9537 19204.6 -14988.8 -37.9713 24361.5
 02 10 2023  03 26  03.9540 19204.9 -14988.8 -37.9707 24361.7
 02 10 2023  03 27  03.9537 19204.2 -14988.7 -37.9717 24361.1
 02 10 2023  03 28  03.9535 19204.2 -14988.7 -37.9717 24361.1
 02 10 2023  03 29  03.9529 19204.2 -14988.8 -37.9717 24361.1
 02 10 2023  03 30  03.9522 19203.9 -14988.8 -37.9722 24360.9
 02 10 2023  03 31  03.9519 19203.6 -14988.8 -37.9726 24360.7
 02 10 2023  03 32  03.9518 19203.4 -14988.8 -37.9731 24360.5
 02 10 2023  03 33  03.9519 19203.1 -14988.9 -37.9735 24360.3
 02 10 2023  03 34  03.9518 19202.9 -14988.9 -37.9738 24360.2
 02 10 2023  03 35  03.9520 19202.7 -14988.9 -37.9741 24360.0
 02 10 2023  03 36  03.9518 19202.5 -14988.9 -37.9745 24359.8
 02 10 2023  03 37  03.9517 19202.2 -14988.9 -37.9749 24359.6
 02 10 2023  03 38  03.9515 19201.9 -14988.9 -37.9753 24359.4
 02 10 2023  03 39  03.9511 19201.6 -14988.9 -37.9758 24359.2
 02 10 2023  03 40  03.9509 19201.4 -14989.0 -37.9762 24359.1
 02 10 2023  03 41  03.9507 19201.4 -14989.0 -37.9762 24359.1
 02 10 2023  03 42  03.9504 19201.2 -14989.0 -37.9766 24358.9
 02 10 2023  03 43  03.9499 19200.8 -14989.1 -37.9772 24358.7
 02 10 2023  03 44  03.9494 19200.5 -14989.1 -37.9778 24358.5
 02 10 2023  03 45  03.9490 19200.2 -14989.2 -37.9784 24358.2
 02 10 2023  03 46  03.9487 19199.8 -14989.3 -37.9791 24357.9
 02 10 2023  03 47  03.9487 19199.4 -14989.3 -37.9798 24357.7
 02 10 2023  03 48  03.9486 19199.0 -14989.4 -37.9805 24357.4
 02 10 2023  03 49  03.9486 19198.6 -14989.5 -37.9811 24357.2
 02 10 2023  03 50  03.9484 19198.4 -14989.5 -37.9816 24357.0
 02 10 2023  03 51  03.9483 19198.2 -14989.5 -37.9819 24356.8
 02 10 2023  03 52  03.9481 19198.1 -14989.6 -37.9821 24356.8
 02 10 2023  03 53  03.9479 19198.0 -14989.6 -37.9822 24356.8
 02 10 2023  03 54  03.9479 19198.0 -14989.6 -37.9823 24356.8
 02 10 2023  03 55  03.9480 19198.2 -14989.7 -37.9821 24357.0
 02 10 2023  03 56  03.9479 19198.8 -14989.7 -37.9812 24357.5
 02 10 2023  03 57  03.9477 19199.4 -14989.7 -37.9804 24357.9
 02 10 2023  03 58  03.9475 19199.9 -14989.7 -37.9797 24358.3
 02 10 2023  03 59  03.9472 19200.2 -14989.7 -37.9793 24358.6
 02 10 2023  04 00  03.9469 19200.4 -14989.7 -37.9790 24358.7
 02 10 2023  04 01  03.9469 19200.6 -14989.7 -37.9787 24358.9
 02 10 2023  04 02  03.9471 19200.6 -14989.8 -37.9788 24358.9
 02 10 2023  04 03  03.9473 19200.2 -14989.8 -37.9794 24358.5
 02 10 2023  04 04  03.9477 19199.6 -14989.8 -37.9803 24358.1
 02 10 2023  04 05  03.9480 19199.0 -14989.8 -37.9812 24357.6
 02 10 2023  04 06  03.9483 19198.4 -14989.8 -37.9820 24357.2
 02 10 2023  04 07  03.9483 19197.9 -14989.8 -37.9829 24356.8
 02 10 2023  04 08  03.9483 19197.4 -14989.8 -37.9836 24356.4
 02 10 2023  04 09  03.9483 19197.2 -14989.9 -37.9839 24356.3
 02 10 2023  04 10  03.9483 19196.9 -14989.9 -37.9843 24356.1
 02 10 2023  04 11  03.9483 19196.8 -14989.9 -37.9846 24356.0
 02 10 2023  04 12  03.9483 19196.7 -14989.9 -37.9848 24355.9
 02 10 2023  04 13  03.9482 19196.7 -14990.0 -37.9849 24355.9
 02 10 2023  04 14  03.9480 19196.7 -14990.0 -37.9850 24355.9
 02 10 2023  04 15  03.9479 19196.4 -14990.0 -37.9853 24355.8
 02 10 2023  04 16  03.9478 19196.3 -14990.1 -37.9856 24355.7
 02 10 2023  04 17  03.9477 19196.0 -14990.1 -37.9860 24355.5
 02 10 2023  04 18  03.9474 19195.8 -14990.1 -37.9864 24355.3
 02 10 2023  04 19  03.9471 19195.6 -14990.1 -37.9867 24355.2
 02 10 2023  04 20  03.9468 19195.3 -14990.2 -37.9873 24355.0
 02 10 2023  04 21  03.9467 19194.9 -14990.2 -37.9879 24354.7
 02 10 2023  04 22  03.9466 19194.7 -14990.2 -37.9882 24354.6
 02 10 2023  04 23  03.9467 19194.7 -14990.3 -37.9884 24354.6
 02 10 2023  04 24  03.9465 19194.6 -14990.3 -37.9886 24354.5
 02 10 2023  04 25  03.9462 19194.4 -14990.4 -37.9890 24354.3
 02 10 2023  04 26  03.9462 19194.1 -14990.4 -37.9893 24354.2
 02 10 2023  04 27  03.9461 19194.0 -14990.4 -37.9896 24354.1
 02 10 2023  04 28  03.9460 19193.9 -14990.4 -37.9898 24354.0
 02 10 2023  04 29  03.9459 19193.8 -14990.5 -37.9900 24354.0
 02 10 2023  04 30  03.9458 19193.8 -14990.5 -37.9901 24354.0
 02 10 2023  04 31  03.9455 19193.6 -14990.5 -37.9903 24353.9
 02 10 2023  04 32  03.9453 19193.5 -14990.6 -37.9906 24353.8
 02 10 2023  04 33  03.9452 19193.4 -14990.6 -37.9907 24353.8
 02 10 2023  04 34  03.9452 19193.5 -14990.6 -37.9908 24353.8
 02 10 2023  04 35  03.9451 19193.4 -14990.7 -37.9909 24353.8
 02 10 2023  04 36  03.9451 19193.4 -14990.7 -37.9909 24353.8
 02 10 2023  04 37  03.9451 19193.3 -14990.7 -37.9912 24353.7
 02 10 2023  04 38  03.9451 19193.3 -14990.7 -37.9913 24353.7
 02 10 2023  04 39  03.9450 19193.2 -14990.8 -37.9913 24353.7
 02 10 2023  04 40  03.9448 19193.1 -14990.8 -37.9916 24353.6
 02 10 2023  04 41  03.9448 19193.1 -14990.8 -37.9917 24353.6
 02 10 2023  04 42  03.9448 19193.3 -14990.9 -37.9915 24353.8
 02 10 2023  04 43  03.9449 19193.3 -14990.9 -37.9914 24353.8
 02 10 2023  04 44  03.9448 19193.3 -14990.9 -37.9914 24353.9
 02 10 2023  04 45  03.9451 19193.5 -14990.9 -37.9912 24354.0
 02 10 2023  04 46  03.9452 19193.5 -14990.9 -37.9912 24354.0
 02 10 2023  04 47  03.9453 19193.4 -14990.9 -37.9913 24354.0
 02 10 2023  04 48  03.9452 19193.2 -14990.9 -37.9917 24353.8
 02 10 2023  04 49  03.9451 19193.1 -14991.0 -37.9920 24353.7
 02 10 2023  04 50  03.9451 19193.0 -14991.0 -37.9922 24353.6
 02 10 2023  04 51  03.9453 19192.7 -14991.0 -37.9926 24353.5
 02 10 2023  04 52  03.9456 19192.5 -14991.1 -37.9929 24353.3
 02 10 2023  04 53  03.9459 19192.4 -14991.1 -37.9931 24353.2
 02 10 2023  04 54  03.9460 19192.3 -14991.1 -37.9933 24353.2
 02 10 2023  04 55  03.9458 19192.1 -14991.1 -37.9936 24353.0
 02 10 2023  04 56  03.9455 19191.6 -14991.1 -37.9943 24352.7
 02 10 2023  04 57  03.9455 19191.6 -14991.2 -37.9944 24352.7
 02 10 2023  04 58  03.9453 19191.5 -14991.2 -37.9946 24352.6
 02 10 2023  04 59  03.9453 19191.5 -14991.2 -37.9947 24352.6
 02 10 2023  05 00  03.9452 19191.5 -14991.2 -37.9947 24352.6
 02 10 2023  05 01  03.9451 19191.4 -14991.3 -37.9949 24352.6
 02 10 2023  05 02  03.9452 19191.5 -14991.3 -37.9949 24352.6
 02 10 2023  05 03  03.9452 19191.6 -14991.3 -37.9947 24352.8
 02 10 2023  05 04  03.9450 19191.7 -14991.3 -37.9946 24352.8
 02 10 2023  05 05  03.9448 19191.5 -14991.3 -37.9949 24352.7
 02 10 2023  05 06  03.9444 19191.2 -14991.4 -37.9953 24352.5
 02 10 2023  05 07  03.9442 19191.1 -14991.4 -37.9957 24352.4
 02 10 2023  05 08  03.9439 19191.0 -14991.5 -37.9959 24352.3
 02 10 2023  05 09  03.9438 19190.9 -14991.5 -37.9961 24352.3
 02 10 2023  05 10  03.9439 19190.6 -14991.5 -37.9965 24352.1
 02 10 2023  05 11  03.9441 19190.5 -14991.5 -37.9966 24352.1
 02 10 2023  05 12  03.9441 19190.4 -14991.6 -37.9969 24351.9
 02 10 2023  05 13  03.9439 19190.2 -14991.6 -37.9973 24351.8
 02 10 2023  05 14  03.9438 19190.0 -14991.6 -37.9975 24351.7
 02 10 2023  05 15  03.9435 19189.9 -14991.6 -37.9977 24351.7
 02 10 2023  05 16  03.9432 19189.6 -14991.7 -37.9982 24351.4
 02 10 2023  05 17  03.9428 19189.4 -14991.7 -37.9986 24351.3
 02 10 2023  05 18  03.9423 19189.2 -14991.8 -37.9990 24351.2
 02 10 2023  05 19  03.9420 19189.0 -14991.8 -37.9994 24351.0
