CHILLAN EMBRACE-14 <356> 1 Min. Reported data

 DD MM YYYY  HH MM   H(mV)   D(mV)   Z(mV)  T1(mV)  T2(mV)

 22 12 2022  17 11  -1701.017 -011.520 1957.648 244.281 280.522
 22 12 2022  17 12  -1706.359 -013.846 1957.309 244.256 280.525
 22 12 2022  17 13  -1694.637 -019.499 1963.101 244.275 280.615
 22 12 2022  17 14  -1705.947 -013.366 1961.449 244.313 280.625
 22 12 2022  17 18  -1705.379 -005.090 1953.720 244.256 280.706
 22 12 2022  17 19  -1703.525 -005.924 1954.339 244.318 280.727
 22 12 2022  17 20  -1701.779 -004.649 1954.952 244.359 280.739
 22 12 2022  17 21  -1700.036 -003.443 1954.813 244.357 280.762
 22 12 2022  17 22  -1698.879 -003.297 1954.687 244.337 280.770
 22 12 2022  17 23  -1697.485 -004.749 1955.289 244.445 280.767
 22 12 2022  17 24  -1683.025 -015.084 1963.338 244.441 280.727
 22 12 2022  17 25  -1594.804 -090.269 2008.645 244.472 280.794
 22 12 2022  17 26  -1594.402 -091.000 2009.116 244.450 280.757
 22 12 2022  17 27  -1594.108 -091.848 2009.566 244.509 280.819
 22 12 2022  17 28  -1595.955 -092.333 2013.901 244.559 280.805
 22 12 2022  17 29  -1596.003 -093.391 2014.259 244.581 280.767
 22 12 2022  17 30  -1597.427 -095.518 2015.014 244.556 280.795
 22 12 2022  17 31  -1597.901 -095.841 2015.514 244.661 280.774
 22 12 2022  17 32  -1597.890 -096.748 2016.200 244.678 280.733
 22 12 2022  17 33  -1597.050 -096.341 2016.748 244.722 280.687
 22 12 2022  17 34  -1595.900 -095.159 2016.947 244.744 280.652
 22 12 2022  17 35  -1593.031 -095.064 2013.915 244.745 280.597
 22 12 2022  17 36  -1591.681 -099.513 2014.629 244.749 280.542
 22 12 2022  17 37  -1590.257 -102.770 2015.188 244.763 280.458
 22 12 2022  17 38  -1590.702 -102.818 2015.277 244.776 280.382
 22 12 2022  17 39  -1589.708 -103.314 2015.869 244.745 280.309
 22 12 2022  17 40  -1589.482 -103.726 2016.147 244.739 280.244
 22 12 2022  17 41  -1588.718 -104.308 2016.102 244.750 280.159
 22 12 2022  17 42  -1580.480 -107.184 2017.838 244.722 280.096
 22 12 2022  17 43  -1580.658 -107.798 2018.205 244.675 280.044
 22 12 2022  17 44  -1584.475 -108.822 2017.801 244.635 279.995
 22 12 2022  17 45  -1584.627 -110.155 2018.598 244.636 279.927
 22 12 2022  17 46  -1585.618 -110.205 2018.788 244.512 279.878
 22 12 2022  17 47  -1586.389 -109.978 2018.922 244.556 279.771
 22 12 2022  17 48  -1587.910 -109.941 2019.028 244.515 279.738
 22 12 2022  17 49  -1588.232 -110.060 2018.873 244.533 279.691
 22 12 2022  17 50  -1587.193 -109.019 2019.143 244.471 279.601
 22 12 2022  17 51  -1586.648 -107.656 2019.280 244.439 279.564
 22 12 2022  17 52  -1585.951 -106.701 2019.322 244.384 279.489
 22 12 2022  17 53  -1585.080 -105.633 2019.080 244.385 279.419
 22 12 2022  17 54  -1584.216 -104.888 2019.379 244.355 279.408
 22 12 2022  17 55  -1584.706 -103.825 2019.170 244.297 279.350
 22 12 2022  17 56  -1585.764 -103.806 2018.988 244.271 279.291
 22 12 2022  17 57  -1586.271 -103.997 2018.944 244.261 279.268
 22 12 2022  17 58  -1586.788 -103.890 2018.856 244.264 279.238
 22 12 2022  17 59  -1585.827 -103.381 2019.016 244.157 279.185
 22 12 2022  18 00  -1585.309 -102.182 2019.080 244.022 279.127
 22 12 2022  18 01  -1585.837 -101.479 2018.525 243.977 279.079
 22 12 2022  18 02  -1585.847 -101.835 2018.296 243.996 279.009
 22 12 2022  18 03  -1586.045 -101.769 2018.300 243.988 278.922
 22 12 2022  18 04  -1586.912 -101.241 2017.990 243.934 278.926
 22 12 2022  18 05  -1587.052 -101.107 2017.705 243.914 278.905
 22 12 2022  18 06  -1588.334 -101.484 2017.639 243.902 278.834
 22 12 2022  18 07  -1589.694 -102.500 2017.607 243.888 278.836
 22 12 2022  18 08  -1590.003 -102.536 2017.581 243.852 278.772
 22 12 2022  18 09  -1588.805 -102.667 2017.531 243.788 278.735
 22 12 2022  18 10  -1587.929 -102.065 2017.835 243.741 278.722
 22 12 2022  18 11  -1587.929 -101.271 2017.729 243.691 278.711
 22 12 2022  18 12  -1587.209 -101.222 2017.575 243.658 278.554
 22 12 2022  18 13  -1585.893 -100.449 2017.577 243.590 278.552
 22 12 2022  18 14  -1584.326 -099.048 2017.973 243.547 278.520
 22 12 2022  18 15  -1583.167 -097.422 2017.790 243.532 278.457
 22 12 2022  18 16  -1583.808 -096.596 2017.500 243.506 278.419
 22 12 2022  18 17  -1587.684 -098.560 2017.032 243.438 278.353
 22 12 2022  18 18  -1589.154 -101.054 2016.788 243.386 278.271
 22 12 2022  18 19  -1588.808 -103.051 2016.436 243.340 278.201
 22 12 2022  18 20  -1588.269 -102.706 2016.814 243.262 278.141
 22 12 2022  18 21  -1588.833 -102.034 2016.739 243.207 278.111
 22 12 2022  18 22  -1590.002 -101.674 2016.632 243.193 278.091
 22 12 2022  18 23  -1589.544 -100.463 2016.391 243.109 278.007
 22 12 2022  18 24  -1587.204 -098.279 2016.135 243.015 277.905
 22 12 2022  18 25  -1582.791 -092.730 2015.605 243.036 277.845
 22 12 2022  18 26  -1583.695 -080.722 2014.315 242.981 277.822
 22 12 2022  18 27  -1590.703 -061.382 2009.324 242.940 277.816
 22 12 2022  18 28  -1588.158 -058.811 2008.387 242.897 277.776
 22 12 2022  18 29  -1586.281 -055.970 2007.246 242.862 277.712
 22 12 2022  18 30  -1584.340 -052.622 2006.064 242.806 277.685
 22 12 2022  18 31  -1582.171 -050.083 2004.758 242.765 277.649
 22 12 2022  18 32  -1580.440 -048.387 2003.880 242.718 277.709
 22 12 2022  18 33  -1580.715 -048.747 2003.197 242.675 277.665
 22 12 2022  18 34  -1580.562 -048.821 2002.544 242.636 277.602
 22 12 2022  18 35  -1581.856 -048.490 2001.570 242.562 277.551
 22 12 2022  18 36  -1583.024 -048.793 2000.646 242.545 277.569
 22 12 2022  18 37  -1584.256 -049.497 1999.954 242.530 277.572
 22 12 2022  18 38  -1585.556 -049.186 1999.366 242.496 277.522
 22 12 2022  18 39  -1586.986 -048.877 1998.446 242.465 277.498
 22 12 2022  18 40  -1587.650 -048.286 1997.748 242.342 277.502
 22 12 2022  18 41  -1589.062 -048.208 1997.154 242.366 277.483
 22 12 2022  18 42  -1589.236 -047.595 1996.602 242.349 277.466
 22 12 2022  18 43  -1592.482 -046.264 1994.406 242.309 277.427
 22 12 2022  18 44  -1607.702 -023.697 1978.734 242.258 277.419
 22 12 2022  18 45  -1609.750 -024.086 1977.849 242.204 277.401
 22 12 2022  18 46  -1613.862 -026.850 1977.972 242.166 277.425
 22 12 2022  18 47  -1617.298 -027.643 1977.585 242.156 277.397
 22 12 2022  18 48  -1620.229 -029.539 1977.118 242.171 277.413
 22 12 2022  18 49  -1622.975 -031.234 1977.221 242.121 277.426
 22 12 2022  18 50  -1624.198 -031.691 1977.010 242.034 277.451
 22 12 2022  18 51  -1625.089 -032.057 1976.866 242.053 277.491
 22 12 2022  18 52  -1625.244 -032.747 1976.667 242.095 277.506
 22 12 2022  18 53  -1622.953 -035.860 1971.066 242.093 277.528
 22 12 2022  18 54  -1623.565 -036.809 1962.794 242.077 277.540
 22 12 2022  18 55  -1625.257 -037.826 1962.663 242.070 277.601
 22 12 2022  18 56  -1626.766 -038.857 1962.881 242.070 277.637
 22 12 2022  18 57  -1628.356 -040.392 1962.854 242.052 277.660
 22 12 2022  18 58  -1629.223 -041.419 1963.381 242.084 277.645
 22 12 2022  18 59  -1630.163 -041.927 1963.845 242.043 277.645
 22 12 2022  19 00  -1631.807 -043.199 1964.188 242.030 277.686
 22 12 2022  19 01  -1633.500 -044.466 1964.448 242.057 277.722
 22 12 2022  19 02  -1635.799 -045.716 1965.021 242.067 277.781
 22 12 2022  19 03  -1637.682 -047.427 1965.620 242.073 277.809
 22 12 2022  19 04  -1638.507 -048.644 1966.358 242.125 277.786
 22 12 2022  19 05  -1638.778 -049.436 1967.172 242.088 277.852
 22 12 2022  19 06  -1640.247 -050.260 1967.740 242.078 277.893
 22 12 2022  19 07  -1640.695 -050.594 1968.364 242.041 277.882
 22 12 2022  19 08  -1642.392 -051.452 1968.829 242.088 277.946
 22 12 2022  19 09  -1642.051 -051.075 1969.417 242.112 277.955
 22 12 2022  19 10  -1642.689 -051.361 1970.129 242.110 277.978
 22 12 2022  19 11  -1644.698 -051.450 1970.334 242.065 278.012
 22 12 2022  19 12  -1646.457 -052.110 1970.771 242.152 277.986
 22 12 2022  19 13  -1647.029 -052.825 1971.208 242.102 277.984
 22 12 2022  19 14  -1646.191 -052.768 1972.033 242.160 278.050
 22 12 2022  19 15  -1646.722 -052.699 1972.433 242.220 278.066
 22 12 2022  19 16  -1647.074 -053.153 1972.934 242.199 278.056
 22 12 2022  19 17  -1646.349 -052.417 1973.545 242.233 278.078
 22 12 2022  19 18  -1646.201 -051.583 1973.860 242.267 278.103
 22 12 2022  19 19  -1646.282 -051.023 1974.179 242.234 278.179
 22 12 2022  19 20  -1646.424 -050.134 1974.420 242.298 278.172
 22 12 2022  19 21  -1647.909 -049.918 1974.579 242.317 278.209
 22 12 2022  19 22  -1648.576 -049.868 1974.777 242.348 278.257
 22 12 2022  19 23  -1647.937 -049.550 1975.158 242.390 278.234
 22 12 2022  19 24  -1647.920 -048.896 1975.652 242.407 278.233
 22 12 2022  19 25  -1647.518 -048.401 1975.770 242.384 278.262
 22 12 2022  19 26  -1648.363 -048.565 1976.337 242.457 278.298
 22 12 2022  19 27  -1647.919 -048.433 1976.675 242.467 278.300
 22 12 2022  19 28  -1647.591 -047.870 1977.207 242.486 278.308
 22 12 2022  19 29  -1647.731 -047.660 1977.533 242.518 278.312
 22 12 2022  19 30  -1647.456 -045.966 1977.578 242.529 278.369
 22 12 2022  19 31  -1648.194 -045.712 1977.497 242.540 278.392
 22 12 2022  19 32  -1648.374 -045.365 1977.463 242.577 278.354
 22 12 2022  19 33  -1647.478 -044.508 1977.186 242.578 278.383
 22 12 2022  19 34  -1646.919 -044.317 1977.301 242.547 278.400
 22 12 2022  19 35  -1646.671 -043.985 1977.291 242.613 278.392
 22 12 2022  19 36  -1646.631 -044.513 1977.389 242.654 278.443
 22 12 2022  19 37  -1646.080 -044.740 1977.652 242.688 278.434
 22 12 2022  19 38  -1645.257 -043.937 1977.860 242.690 278.462
 22 12 2022  19 39  -1644.978 -043.390 1977.977 242.703 278.472
 22 12 2022  19 40  -1645.328 -042.929 1978.114 242.737 278.477
 22 12 2022  19 41  -1645.616 -043.170 1978.258 242.746 278.518
 22 12 2022  19 42  -1645.940 -043.279 1978.476 242.748 278.497
 22 12 2022  19 43  -1645.911 -042.558 1978.494 242.743 278.478
 22 12 2022  19 44  -1646.130 -041.871 1978.721 242.770 278.483
 22 12 2022  19 45  -1646.266 -041.618 1978.747 242.782 278.494
 22 12 2022  19 46  -1645.752 -041.229 1978.894 242.795 278.503
 22 12 2022  19 47  -1645.137 -040.556 1978.980 242.858 278.530
 22 12 2022  19 48  -1643.959 -039.419 1979.153 242.899 278.528
 22 12 2022  19 49  -1642.894 -038.625 1979.200 242.881 278.557
 22 12 2022  19 50  -1642.993 -038.760 1978.961 242.853 278.535
 22 12 2022  19 51  -1644.121 -039.171 1979.107 242.830 278.547
 22 12 2022  19 52  -1643.355 -039.136 1978.893 242.901 278.575
 22 12 2022  19 53  -1642.253 -038.742 1979.347 242.884 278.590
 22 12 2022  19 54  -1642.508 -038.308 1979.082 242.868 278.599
 22 12 2022  19 55  -1641.852 -038.526 1979.127 242.837 278.590
 22 12 2022  19 56  -1640.945 -038.522 1979.217 242.889 278.606
 22 12 2022  19 57  -1640.265 -038.471 1979.194 242.934 278.627
 22 12 2022  19 58  -1641.620 -039.282 1979.249 242.957 278.597
 22 12 2022  19 59  -1643.705 -041.053 1979.207 242.942 278.619
 22 12 2022  20 00  -1645.488 -041.913 1979.269 242.969 278.604
 22 12 2022  20 01  -1644.848 -042.438 1979.179 242.977 278.609
 22 12 2022  20 02  -1645.589 -042.767 1979.420 242.975 278.604
 22 12 2022  20 03  -1648.378 -043.208 1979.380 242.967 278.597
 22 12 2022  20 04  -1651.469 -043.556 1979.094 242.950 278.614
 22 12 2022  20 05  -1653.584 -043.672 1978.884 243.000 278.606
 22 12 2022  20 06  -1656.013 -043.219 1978.469 242.996 278.579
 22 12 2022  20 07  -1656.728 -042.705 1978.316 243.013 278.644
 22 12 2022  20 08  -1658.650 -042.996 1978.334 243.023 278.610
 22 12 2022  20 09  -1660.176 -043.061 1978.324 242.961 278.614
 22 12 2022  20 10  -1662.583 -043.100 1978.170 242.948 278.584
 22 12 2022  20 11  -1664.235 -042.543 1977.989 242.996 278.594
 22 12 2022  20 12  -1665.941 -042.088 1977.695 243.064 278.663
 22 12 2022  20 13  -1666.910 -042.193 1977.620 243.077 278.613
 22 12 2022  20 14  -1667.200 -041.816 1977.785 243.061 278.619
 22 12 2022  20 15  -1667.218 -041.169 1977.942 243.088 278.606
 22 12 2022  20 16  -1667.781 -041.283 1978.301 243.056 278.596
 22 12 2022  20 17  -1667.981 -041.158 1978.799 243.055 278.586
 22 12 2022  20 18  -1668.664 -040.809 1979.078 243.003 278.664
 22 12 2022  20 19  -1669.002 -040.703 1979.494 243.075 278.622
 22 12 2022  20 20  -1669.050 -040.387 1979.873 243.076 278.645
 22 12 2022  20 21  -1668.512 -040.302 1980.328 243.079 278.615
 22 12 2022  20 22  -1667.451 -039.837 1980.963 243.081 278.622
 22 12 2022  20 23  -1667.083 -039.251 1981.316 243.035 278.586
 22 12 2022  20 24  -1666.843 -039.692 1981.474 243.074 278.609
 22 12 2022  20 25  -1666.366 -040.363 1982.209 243.134 278.629
 22 12 2022  20 26  -1666.005 -039.971 1982.902 243.141 278.620
 22 12 2022  20 27  -1665.012 -039.614 1983.524 243.126 278.612
 22 12 2022  20 28  -1663.836 -039.508 1983.894 243.143 278.637
 22 12 2022  20 29  -1661.764 -039.168 1984.468 243.175 278.645
 22 12 2022  20 30  -1659.852 -038.854 1985.136 243.148 278.636
 22 12 2022  20 31  -1657.990 -038.609 1985.653 243.138 278.605
 22 12 2022  20 32  -1656.462 -038.733 1986.367 243.177 278.648
 22 12 2022  20 33  -1655.429 -038.928 1986.767 243.148 278.661
 22 12 2022  20 34  -1654.974 -039.332 1987.281 243.125 278.627
 22 12 2022  20 35  -1654.398 -039.482 1987.637 243.187 278.608
 22 12 2022  20 36  -1653.593 -039.576 1988.043 243.224 278.601
 22 12 2022  20 37  -1652.448 -039.679 1988.843 243.232 278.594
 22 12 2022  20 38  -1651.005 -039.615 1989.277 243.224 278.557
 22 12 2022  20 39  -1649.380 -039.764 1989.964 243.244 278.560
 22 12 2022  20 40  -1648.270 -039.752 1990.447 243.255 278.560
 22 12 2022  20 41  -1646.810 -039.279 1990.857 243.237 278.563
 22 12 2022  20 42  -1645.163 -038.667 1991.366 243.248 278.579
 22 12 2022  20 43  -1642.976 -038.273 1991.893 243.221 278.601
 22 12 2022  20 44  -1643.274 -038.531 1992.275 243.108 278.548
 22 12 2022  20 45  -1642.845 -038.950 1992.732 243.144 278.581
 22 12 2022  20 46  -1641.421 -039.005 1993.335 243.199 278.549
 22 12 2022  20 47  -1641.661 -039.335 1993.926 243.198 278.554
 22 12 2022  20 48  -1642.009 -039.599 1994.121 243.204 278.565
 22 12 2022  20 49  -1642.178 -040.111 1994.716 243.189 278.571
 22 12 2022  20 50  -1642.086 -040.515 1995.242 243.199 278.551
 22 12 2022  20 51  -1642.169 -040.877 1995.927 243.218 278.616
 22 12 2022  20 52  -1641.358 -040.490 1996.631 243.228 278.613
 22 12 2022  20 53  -1640.377 -039.792 1996.915 243.263 278.592
 22 12 2022  20 54  -1640.337 -039.915 1997.445 243.272 278.595
 22 12 2022  20 55  -1639.409 -039.933 1998.120 243.255 278.556
 22 12 2022  20 56  -1639.160 -039.749 1998.729 243.263 278.533
 22 12 2022  20 57  -1638.973 -039.297 1998.988 243.252 278.552
 22 12 2022  20 58  -1638.516 -039.040 1999.320 243.257 278.566
 22 12 2022  20 59  -1638.059 -038.847 1999.691 243.255 278.572
 22 12 2022  21 00  -1637.859 -038.603 2000.039 243.258 278.571
 22 12 2022  21 01  -1637.558 -038.287 2000.520 243.272 278.552
 22 12 2022  21 02  -1637.621 -038.177 2000.963 243.259 278.551
 22 12 2022  21 03  -1637.207 -037.897 2001.350 243.261 278.529
 22 12 2022  21 04  -1636.784 -037.479 2001.812 243.253 278.562
 22 12 2022  21 05  -1636.020 -036.905 2002.111 243.233 278.565
 22 12 2022  21 06  -1634.961 -036.308 2002.250 243.292 278.506
 22 12 2022  21 07  -1633.944 -035.661 2002.734 243.295 278.522
 22 12 2022  21 08  -1633.012 -034.894 2002.752 243.214 278.473
 22 12 2022  21 09  -1631.559 -034.138 2003.091 243.206 278.494
 22 12 2022  21 10  -1629.978 -033.391 2003.343 243.198 278.470
 22 12 2022  21 11  -1628.844 -032.947 2003.833 243.225 278.486
 22 12 2022  21 12  -1627.829 -032.636 2004.048 243.226 278.501
 22 12 2022  21 13  -1627.377 -032.401 2004.333 243.177 278.498
 22 12 2022  21 14  -1627.486 -032.334 2004.457 243.211 278.465
 22 12 2022  21 15  -1627.992 -032.472 2004.672 243.174 278.433
 22 12 2022  21 16  -1629.079 -032.555 2004.815 243.144 278.452
 22 12 2022  21 17  -1629.099 -032.388 2004.828 243.274 278.443
 22 12 2022  21 18  -1629.738 -032.513 2005.150 243.272 278.404
 22 12 2022  21 19  -1630.331 -032.513 2005.471 243.171 278.419
 22 12 2022  21 20  -1630.424 -032.577 2005.654 243.159 278.438
 22 12 2022  21 21  -1630.929 -032.674 2005.811 243.157 278.408
 22 12 2022  21 22  -1631.166 -032.572 2005.955 243.146 278.375
 22 12 2022  21 23  -1631.885 -032.473 2005.994 243.139 278.361
 22 12 2022  21 24  -1631.619 -032.293 2006.131 243.145 278.301
 22 12 2022  21 25  -1631.130 -032.433 2010.267 243.137 278.311
 22 12 2022  21 26  -1624.472 -034.162 2021.994 243.206 278.317
 22 12 2022  21 27  -1632.020 -031.983 2006.146 243.122 278.310
 22 12 2022  21 28  -1631.979 -032.089 2006.398 243.111 278.271
 22 12 2022  21 29  -1631.822 -032.089 2006.496 243.120 278.266
 22 12 2022  21 30  -1630.720 -031.958 2006.779 243.130 278.224
 22 12 2022  21 31  -1630.656 -032.004 2007.116 243.123 278.195
 22 12 2022  21 32  -1631.008 -031.986 2007.232 243.105 278.150
 22 12 2022  21 33  -1631.307 -031.988 2007.331 243.074 278.132
 22 12 2022  21 34  -1631.494 -031.900 2007.584 243.039 278.126
 22 12 2022  21 35  -1631.818 -031.623 2007.560 243.081 278.085
 22 12 2022  21 36  -1632.640 -031.696 2007.818 243.094 278.059
 22 12 2022  21 37  -1633.190 -031.504 2007.688 243.026 278.098
 22 12 2022  21 38  -1633.049 -031.127 2007.726 242.980 278.049
 22 12 2022  21 39  -1633.871 -031.019 2007.811 243.062 278.010
 22 12 2022  21 40  -1634.817 -031.000 2008.008 243.045 278.029
 22 12 2022  21 41  -1635.188 -030.754 2007.755 243.048 278.011
 22 12 2022  21 42  -1634.848 -030.307 2007.779 243.011 277.986
 22 12 2022  21 43  -1634.645 -029.983 2007.918 242.972 277.965
 22 12 2022  21 44  -1633.805 -029.732 2008.243 243.026 277.964
 22 12 2022  21 45  -1632.691 -029.020 2008.310 242.999 277.942
 22 12 2022  21 46  -1632.267 -028.751 2008.570 242.989 277.921
 22 12 2022  21 47  -1631.694 -028.258 2008.758 242.955 277.964
 22 12 2022  21 48  -1631.088 -027.663 2008.764 242.923 277.971
 22 12 2022  21 49  -1630.870 -027.061 2008.793 242.998 277.954
 22 12 2022  21 50  -1630.819 -026.746 2008.932 242.981 277.909
 22 12 2022  21 51  -1630.880 -026.481 2008.906 242.961 277.877
 22 12 2022  21 52  -1630.931 -026.538 2009.130 242.949 277.894
 22 12 2022  21 53  -1630.881 -026.082 2009.257 242.990 277.884
 22 12 2022  21 54  -1630.348 -025.818 2009.489 242.958 277.858
 22 12 2022  21 55  -1628.958 -025.419 2009.458 242.953 277.871
 22 12 2022  21 56  -1627.832 -025.003 2009.613 242.956 277.868
 22 12 2022  21 57  -1626.516 -024.280 2009.737 242.954 277.797
 22 12 2022  21 58  -1624.743 -023.456 2009.699 242.950 277.763
 22 12 2022  21 59  -1622.433 -022.304 2009.790 242.951 277.780
 22 12 2022  22 00  -1620.003 -021.180 2010.172 242.940 277.804
 22 12 2022  22 01  -1616.293 -019.832 2010.434 242.927 277.769
 22 12 2022  22 02  -1613.020 -018.458 2010.928 242.946 277.745
 22 12 2022  22 03  -1608.811 -016.681 2011.187 242.889 277.766
 22 12 2022  22 04  -1604.645 -015.398 2011.612 242.904 277.728
 22 12 2022  22 05  -1601.406 -014.687 2011.713 242.861 277.734
 22 12 2022  22 06  -1599.495 -013.892 2012.164 242.889 277.735
 22 12 2022  22 07  -1601.402 -014.344 2011.833 242.899 277.710
 22 12 2022  22 08  -1604.704 -015.338 2011.243 242.826 277.748
 22 12 2022  22 09  -1607.166 -016.116 2010.665 242.861 277.721
 22 12 2022  22 10  -1607.518 -016.319 2010.312 242.864 277.728
 22 12 2022  22 11  -1605.892 -016.002 2010.237 242.879 277.729
 22 12 2022  22 12  -1605.071 -015.943 2010.279 242.855 277.692
 22 12 2022  22 13  -1605.534 -016.253 2010.000 242.829 277.722
 22 12 2022  22 14  -1607.510 -016.746 2009.815 242.794 277.676
 22 12 2022  22 15  -1609.499 -016.800 2009.400 242.762 277.653
 22 12 2022  22 16  -1611.786 -016.700 2008.865 242.764 277.615
 22 12 2022  22 17  -1611.684 -016.664 2008.331 242.768 277.579
 22 12 2022  22 18  -1612.879 -016.902 2008.177 242.798 277.570
 22 12 2022  22 19  -1616.026 -018.110 2007.747 242.803 277.479
 22 12 2022  22 20  -1618.476 -019.474 2007.430 242.727 277.485
 22 12 2022  22 21  -1621.921 -020.619 2006.922 242.690 277.454
 22 12 2022  22 22  -1624.979 -021.806 2006.322 242.735 277.452
 22 12 2022  22 23  -1626.355 -022.674 2006.143 242.680 277.440
